#Wave		#Intensity
3199.122070	14311.179688
3198.353516	14333.947266
3197.584961	14168.976563
3196.815430	14069.088867
3196.046875	13982.237305
3195.277344	14447.980469
3194.508789	14221.351563
3193.739258	14430.204102
3192.969727	14249.134766
3192.200195	14246.777344
3191.429688	14338.603516
3190.660156	14427.152344
3189.889648	14652.029297
3189.120117	14201.644531
3188.349609	14407.009766
3187.579102	14440.321289
3186.808594	14308.153320
3186.038086	14253.882813
3185.267578	14232.063477
3184.496094	14291.323242
3183.725586	14580.767578
3182.954102	14422.748047
3182.182617	14443.050781
3181.411133	14200.846680
3180.639648	14457.710938
3179.868164	14409.962891
3179.096680	14550.099609
3178.324219	14469.964844
3177.552734	14351.000000
3176.780273	14461.937500
3176.007813	14352.723633
3175.235352	14460.385742
3174.462891	14393.274414
3173.690430	14475.010742
3172.916992	14796.097656
3172.144531	14751.601563
3171.371094	14438.718750
3170.597656	14349.031250
3169.824219	14569.710938
3169.050781	14531.744141
3168.277344	14626.286133
3167.503906	14475.235352
3166.729492	14495.451172
3165.956055	14551.191406
3165.181641	14729.631836
3164.407227	14436.587891
3163.632813	14724.753906
3162.858398	14825.606445
3162.083984	14736.012695
3161.309570	14730.345703
3160.534180	14569.818359
3159.759766	14589.985352
3158.984375	14642.396484
3158.208984	14923.741211
3157.433594	14689.131836
3156.658203	15054.187500
3155.881836	19912.070313
3155.106445	20247.136719
3154.331055	15720.103516
3153.554688	15098.978516
3152.778320	14771.163086
3152.001953	14701.087891
3151.225586	14688.992188
3150.449219	14689.777344
3149.672852	14838.625977
3148.895508	14887.659180
3148.118164	14669.604492
3147.341797	14750.820313
3146.564453	15025.007813
3145.787109	14823.118164
3145.009766	14624.509766
3144.232422	14776.408203
3143.454102	14661.451172
3142.676758	14794.007813
3141.898438	14820.477539
3141.120117	14779.464844
3140.341797	14841.262695
3139.563477	14886.980469
3138.785156	14958.373047
3138.006836	14952.681641
3137.227539	15049.720703
3136.449219	15098.581055
3135.669922	14913.153320
3134.890625	14942.767578
3134.111328	14828.004883
3133.332031	14738.940430
3132.552734	14723.667969
3131.773438	14769.324219
3130.993164	14988.089844
3130.212891	14975.987305
3129.433594	14951.069336
3128.653320	15051.130859
3127.873047	14856.401367
3127.092773	14680.956055
3126.311523	14960.369141
3125.531250	14724.120117
3124.750000	14580.800781
3123.969727	14927.315430
3123.188477	14880.029297
3122.407227	14903.162109
3121.625977	14871.892578
3120.843750	15090.163086
3120.062500	14975.709961
3119.281250	14915.660156
3118.499023	15060.270508
3117.716797	15217.621094
3116.934570	14898.647461
3116.152344	14924.937500
3115.370117	14765.886719
3114.587891	15079.727539
3113.804688	15016.533203
3113.022461	15049.171875
3112.239258	14950.876953
3111.456055	15056.948242
3110.672852	14866.108398
3109.889648	14921.090820
3109.106445	15052.642578
3108.323242	14852.325195
3107.539063	15057.215820
3106.755859	15032.389648
3105.971680	15077.729492
3105.187500	14899.858398
3104.403320	15053.595703
3103.619141	15063.845703
3102.834961	14927.494141
3102.049805	15116.198242
3101.265625	15056.342773
3100.480469	15092.067383
3099.695313	14888.918945
3098.910156	15176.214844
3098.125000	14922.178711
3097.339844	14957.899414
3096.553711	15069.991211
3095.768555	14857.466797
3094.982422	14972.718750
3094.197266	14947.964844
3093.411133	15257.176758
3092.625000	14987.519531
3091.838867	15124.928711
3091.051758	15192.353516
3090.265625	15034.084961
3089.478516	15041.121094
3088.692383	15181.605469
3087.905273	15036.124023
3087.118164	15030.449219
3086.331055	15142.281250
3085.542969	15187.394531
3084.755859	15324.560547
3083.968750	15090.295898
3083.180664	15084.614258
3082.392578	15018.643555
3081.604492	15196.989258
3080.816406	15308.660156
3080.028320	15277.571289
3079.240234	15075.254883
3078.451172	15120.307617
3077.663086	15203.384766
3076.874023	15308.620117
3076.084961	15366.286133
3075.295898	15328.878906
3074.506836	15424.535156
3073.717773	15276.271484
3072.928711	15343.403320
3072.138672	15255.361328
3071.348633	15123.027344
3070.559570	15253.454102
3069.769531	15573.722656
3068.979492	15529.998047
3068.189453	15454.651367
3067.398438	15218.006836
3066.608398	15455.836914
3065.817383	15595.561523
3065.026367	15387.464844
3064.236328	15141.503906
3063.445313	15527.732422
3062.654297	15180.708008
3061.862305	15421.463867
3061.071289	15264.109375
3060.279297	15271.045898
3059.488281	15416.927734
3058.696289	15537.500977
3057.904297	15563.328125
3057.112305	15484.987305
3056.320313	15460.320313
3055.527344	15571.338867
3054.735352	15518.271484
3053.942383	15648.167969
3053.150391	15349.115234
3052.357422	15740.709961
3051.564453	15507.946289
3050.770508	15357.215820
3049.977539	15739.156250
3049.184570	15544.321289
3048.390625	15806.381836
3047.597656	15725.000000
3046.803711	15873.559570
3046.009766	15622.147461
3045.215820	15477.866211
3044.420898	15453.254883
3043.626953	15743.392578
3042.833008	15841.472656
3042.038086	15697.249023
3041.243164	15751.260742
3040.448242	15798.963867
3039.653320	15846.650391
3038.858398	15765.405273
3038.063477	15618.167969
3037.267578	15675.289063
3036.472656	15751.247070
3035.676758	16128.828125
3034.880859	15991.050781
3034.084961	15859.601563
3033.289063	15630.836914
3032.493164	16045.865234
3031.696289	15666.445313
3030.900391	15952.627930
3030.103516	15906.032227
3029.306641	15919.073242
3028.509766	16067.020508
3027.712891	15970.235352
3026.916016	15980.121094
3026.119141	15858.294922
3025.321289	15902.683594
3024.524414	16053.643555
3023.726563	16201.416992
3022.928711	16280.197266
3022.130859	16064.420898
3021.333008	15970.893555
3020.534180	15889.926758
3019.736328	15846.566406
3018.937500	16175.833984
3018.139648	16035.388672
3017.340820	16170.443359
3016.541992	16067.600586
3015.743164	16199.474609
3014.944336	16156.103516
3014.144531	16184.691406
3013.345703	16153.846680
3012.545898	16185.551758
3011.746094	16317.293945
3010.946289	16048.864258
3010.146484	16477.503906
3009.346680	16187.261719
3008.546875	16237.678711
3007.746094	16272.458984
3006.945313	16354.078125
3006.145508	16220.190430
3005.344727	16186.262695
3004.543945	16386.482422
3003.743164	16349.416992
3002.941406	15984.678711
3002.140625	16250.356445
3001.338867	16363.078125
3000.538086	16475.759766
2999.736328	16114.361328
2998.934570	16305.001953
2998.132813	16383.341797
2997.330078	16355.671875
2996.528320	16477.609375
2995.725586	16640.015625
2994.923828	16602.968750
2994.121094	16618.888672
2993.318359	16556.939453
2992.515625	16694.308594
2991.712891	16470.464844
2990.909180	16772.791016
2990.106445	16710.855469
2989.302734	16695.619141
2988.499023	16711.501953
2987.695313	16466.062500
2986.891602	16559.738281
2986.087891	16500.996094
2985.284180	16687.914063
2984.479492	16526.578125
2983.675781	16713.427734
2982.871094	16614.296875
2982.066406	16633.275391
2981.261719	16708.167969
2980.457031	16727.123047
2979.652344	16749.177734
2978.846680	16578.701172
2978.041992	16768.423828
2977.236328	16691.125000
2976.430664	16737.996094
2975.625000	16682.449219
2974.819336	16744.820313
2974.013672	17123.582031
2973.208008	16953.238281
2972.401367	16730.232422
2971.594727	16708.835938
2970.789063	16857.947266
2969.982422	16867.529297
2969.175781	16638.486328
2968.368164	16868.093750
2967.561523	16877.667969
2966.754883	16754.050781
2965.947266	16763.640625
2965.139648	16797.996094
2964.332031	16971.656250
2963.524414	17086.445313
2962.716797	16993.841797
2961.909180	17037.417969
2961.100586	16848.943359
2960.292969	16747.142578
2959.484375	16877.333984
2958.675781	17081.697266
2957.867188	16936.623047
2957.058594	17075.990234
2956.250000	17153.496094
2955.440430	16989.939453
2954.631836	16959.292969
2953.822266	17021.332031
2953.012695	16833.167969
2952.203125	17068.142578
2951.393555	17089.990234
2950.583984	17084.046875
2949.773438	17241.695313
2948.963867	17282.017578
2948.153320	17035.371094
2947.342773	17109.650391
2946.532227	17029.675781
2945.721680	17082.341797
2944.911133	17027.066406
2944.100586	17048.884766
2943.289063	16944.312500
2942.478516	17046.267578
2941.666992	16978.707031
2940.855469	17222.341797
2940.043945	17274.910156
2939.232422	17148.826172
2938.419922	17038.179688
2937.608398	17001.462891
2936.795898	17069.421875
2935.983398	16998.855469
2935.171875	17352.982422
2934.358398	17334.695313
2933.545898	17322.568359
2932.733398	17396.564453
2931.920898	17316.773438
2931.107422	17378.447266
2930.293945	17335.574219
2929.480469	17151.326172
2928.666992	17514.167969
2927.853516	17369.894531
2927.040039	17370.060547
2926.226563	17400.943359
2925.412109	17152.339844
2924.597656	17404.332031
2923.783203	17791.326172
2922.968750	17377.021484
2922.154297	17383.322266
2921.339844	17438.714844
2920.525391	17242.509766
2919.709961	17359.257813
2918.894531	17344.085938
2918.080078	17420.912109
2917.264648	17580.494141
2916.449219	17620.468750
2915.632813	17338.607422
2914.817383	17479.734375
2914.000977	17743.373047
2913.185547	17489.201172
2912.369141	17559.783203
2911.552734	17489.470703
2910.736328	17722.308594
2909.919922	17599.947266
2909.102539	17670.462891
2908.286133	17820.521484
2907.468750	17444.236328
2906.651367	17640.171875
2905.833984	17624.982422
2905.016602	17560.865234
2904.199219	17524.289063
2903.381836	17934.087891
2902.563477	17616.236328
2901.746094	17879.181641
2900.927734	17879.244141
2900.109375	18004.568359
2899.291016	17787.722656
2898.472656	17891.640625
2897.654297	17574.111328
2896.834961	17794.050781
2896.015625	17873.492188
2895.197266	17821.664063
2894.377930	17959.054688
2893.558594	17895.021484
2892.739258	17788.302734
2891.918945	17721.269531
2891.099609	18084.253906
2890.279297	18008.044922
2889.459961	18032.464844
2888.639648	18111.742188
2887.819336	18050.802734
2886.999023	17883.236328
2886.177734	17999.054688
2885.357422	17776.722656
2884.536133	18145.298828
2883.715820	18105.716797
2882.894531	17983.945313
2882.073242	18142.263672
2881.251953	17977.916016
2880.429688	18279.201172
2879.608398	18364.369141
2878.786133	18227.443359
2877.964844	18011.486328
2877.142578	18257.824219
2876.320313	18203.074219
2875.498047	18133.144531
2874.674805	18209.128906
2873.852539	18175.685547
2873.029297	18294.173828
2872.207031	18239.462891
2871.383789	18351.824219
2870.560547	18163.496094
2869.737305	17996.486328
2868.913086	18108.832031
2868.089844	18072.404297
2867.266602	18357.681641
2866.442383	18154.337891
2865.618164	18224.103516
2864.793945	18315.080078
2863.969727	18284.710938
2863.145508	18299.837891
2862.320313	18466.546875
2861.496094	18069.384766
2860.670898	18187.582031
2859.845703	18190.591797
2859.020508	18320.847656
2858.195313	18535.878906
2857.370117	18184.464844
2856.544922	18402.472656
2855.718750	18402.412109
2854.892578	18051.195313
2854.067383	18462.822266
2853.241211	18075.398438
2852.415039	18390.060547
2851.587891	18232.689453
2850.761719	18441.355469
2849.934570	18211.449219
2849.108398	18241.652344
2848.281250	18274.867188
2847.454102	18205.300781
2846.626953	18540.722656
2845.799805	18329.117188
2844.971680	18292.808594
2844.144531	18247.449219
2843.316406	18229.283203
2842.488281	18277.556641
2841.660156	18289.582031
2840.832031	18549.126953
2840.003906	18476.595703
2839.175781	18425.210938
2838.346680	18385.912109
2837.518555	18295.343750
2836.689453	18310.367188
2835.860352	18322.369141
2835.031250	18337.382813
2834.202148	18412.679688
2833.372070	18144.353516
2832.542969	18276.912109
2831.712891	18138.257813
2830.882813	18433.447266
2830.052734	18406.253906
2829.222656	18270.656250
2828.392578	18186.289063
2827.562500	18327.736328
2826.731445	18387.865234
2825.901367	18526.220703
2825.070313	18174.068359
2824.239258	18447.791016
2823.408203	18441.683594
2822.576172	18264.152344
2821.745117	18203.951172
2820.914063	18369.250000
2820.082031	18101.642578
2819.250000	18116.630859
2818.417969	18296.884766
2817.585938	18329.863281
2816.753906	18170.578125
2815.921875	18167.523438
2815.088867	18299.599609
2814.255859	18248.484375
2813.423828	18212.394531
2812.590820	18359.402344
2811.757813	18671.406250
2810.923828	18275.218750
2810.090820	18116.152344
2809.256836	18104.107422
2808.423828	18373.958984
2807.589844	18125.003906
2806.755859	18298.828125
2805.921875	18193.839844
2805.087891	18055.921875
2804.252930	18118.804688
2803.418945	18502.218750
2802.583984	18340.353516
2801.749023	18403.154297
2800.914063	18307.234375
2800.079102	18316.128906
2799.244141	18076.576172
2798.409180	18139.376953
2797.573242	18121.363281
2796.737305	18028.560547
2795.902344	17771.267578
2795.066406	18049.410156
2794.230469	17857.984375
2793.393555	18139.009766
2792.557617	17816.103516
2791.720703	18141.869141
2790.884766	18213.523438
2790.047852	18183.568359
2789.210938	18004.257813
2788.374023	17908.638672
2787.537109	18153.482422
2786.699219	18099.667969
2785.862305	17893.625000
2785.024414	18221.919922
2784.186523	18003.986328
2783.348633	18182.962891
2782.510742	18281.332031
2781.672852	17950.152344
2780.833984	18260.263672
2779.996094	18000.759766
2779.157227	18108.035156
2778.318359	17944.025391
2777.479492	17926.101563
2776.640625	17923.082031
2775.801758	18215.007813
2774.961914	18220.875000
2774.123047	18316.087891
2773.283203	18033.097656
2772.443359	18113.421875
2771.603516	17994.277344
2770.763672	18244.224609
2769.923828	18089.390625
2769.083008	18029.812500
2768.243164	18011.902344
2767.402344	17952.357422
2766.561523	18062.332031
2765.720703	18249.574219
2764.879883	18068.136719
2764.039063	18169.119141
2763.197266	17999.642578
2762.355469	18228.363281
2761.514648	18222.320313
2760.672852	18035.095703
2759.831055	18222.117188
2758.989258	18257.644531
2758.146484	18260.505859
2757.304688	18313.822266
2756.461914	18132.673828
2755.619141	18132.583984
2754.777344	17981.191406
2753.933594	17957.396484
2753.090820	18141.208984
2752.248047	18061.054688
2751.404297	18120.267578
2750.561523	18040.142578
2749.717773	18324.580078
2748.874023	17868.119141
2748.030273	18119.898438
2747.186523	18179.048828
2746.341797	18181.906250
2745.498047	18078.158203
2744.653320	18140.246094
2743.808594	18163.828125
2742.963867	18148.923828
2742.119141	17915.044922
2741.274414	18107.296875
2740.429688	18408.939453
2739.583984	18107.103516
2738.739258	18311.054688
2737.893555	18231.089844
2737.047852	18204.363281
2736.202148	18434.794922
2735.355469	18192.310547
2734.509766	18251.289063
2733.663086	18325.019531
2732.817383	18484.382813
2731.970703	18374.947266
2731.124023	18330.507813
2730.277344	18105.996094
2729.429688	18430.582031
2728.583008	18347.787109
2727.735352	18253.218750
2726.888672	18291.439453
2726.041016	18040.574219
2725.193359	18270.519531
2724.345703	18261.537109
2723.497070	18270.246094
2722.649414	18107.984375
2721.800781	18334.810547
2720.952148	18172.591797
2720.104492	18490.664063
2719.255859	18514.052734
2718.406250	18281.197266
2717.557617	18301.667969
2716.708008	18254.412109
2715.859375	18383.798828
2715.009766	18333.601563
2714.160156	18230.451172
2713.310547	18462.753906
2712.460938	18356.673828
2711.610352	18427.103516
2710.760742	18341.648438
2709.910156	18162.132813
2709.059570	18461.863281
2708.209961	18446.986328
2707.358398	18314.562500
2706.507813	18282.085938
2705.657227	18155.609375
2704.805664	18340.529297
2703.955078	18310.998047
2703.103516	18410.673828
2702.251953	18287.195313
2701.400391	18392.710938
2700.547852	18322.101563
2699.696289	18365.955078
2698.843750	18398.056641
2697.992188	18218.945313
2697.139648	18265.724609
2696.287109	18215.718750
2695.433594	18066.046875
2694.581055	18250.599609
2693.728516	18209.414063
2692.875000	18171.169922
2692.021484	18229.625000
2691.167969	18132.802734
2690.314453	18223.460938
2689.460938	18264.304688
2688.607422	18196.802734
2687.752930	18234.708984
2686.899414	18316.505859
2686.044922	18058.810547
2685.190430	18389.310547
2684.335938	18049.777344
2683.481445	18122.771484
2682.625977	18315.642578
2681.771484	17999.683594
2680.916016	18233.437500
2680.060547	18417.419922
2679.205078	18364.623047
2678.349609	18262.169922
2677.494141	18124.693359
2676.637695	17943.449219
2675.782227	18054.310547
2674.925781	18165.134766
2674.069336	17978.132813
2673.212891	18024.712891
2672.356445	18231.794922
2671.500000	18155.759766
2670.642578	17986.388672
2669.786133	18216.705078
2668.928711	17977.384766
2668.071289	18009.333984
2667.213867	18006.285156
2666.356445	18140.244141
2665.498047	17997.275391
2664.640625	17970.916016
2663.782227	17927.083984
2662.923828	18040.570313
2662.065430	18171.494141
2661.207031	17961.660156
2660.348633	17856.712891
2659.490234	17751.802734
2658.630859	17888.503906
2657.771484	17836.003906
2656.913086	18094.847656
2656.053711	17620.505859
2655.193359	17940.378906
2654.333984	17896.626953
2653.474609	17663.892578
2652.614258	17617.292969
2651.753906	18111.345703
2650.893555	17756.632813
2650.033203	17852.417969
2649.172852	17913.306641
2648.312500	18014.839844
2647.451172	17974.033203
2646.590820	18203.283203
2645.729492	18249.554688
2644.868164	18133.255859
2644.006836	18211.445313
2643.145508	18060.371094
2642.283203	17758.482422
2641.421875	17749.671875
2640.559570	17711.861328
2639.697266	17642.164063
2638.834961	17937.798828
2637.972656	17841.998047
2637.110352	17746.226563
2636.248047	17821.458984
2635.384766	17702.546875
2634.521484	17905.218750
2633.658203	17997.761719
2632.794922	17997.607422
2631.931641	17652.904297
2631.068359	17901.763672
2630.204102	17982.664063
2629.340820	17872.542969
2628.476563	17774.029297
2627.612305	17617.693359
2626.748047	17854.773438
2625.883789	17698.474609
2625.018555	17886.306641
2624.154297	17897.726563
2623.289063	17894.691406
2622.423828	18018.814453
2621.558594	17816.384766
2620.693359	17911.587891
2619.828125	18119.406250
2618.961914	17775.550781
2618.096680	17940.009766
2617.230469	17867.677734
2616.364258	17939.695313
2615.498047	17783.691406
2614.631836	17901.867188
2613.765625	17780.542969
2612.898438	17564.068359
2612.032227	17783.160156
2611.165039	17696.517578
2610.297852	17644.501953
2609.430664	17635.742188
2608.563477	17869.082031
2607.695313	17690.269531
2606.828125	17822.679688
2605.959961	17862.863281
2605.091797	17770.546875
2604.223633	17874.078125
2603.355469	17778.908203
2602.487305	17626.199219
2601.618164	17585.789063
2600.750000	17931.005859
2599.880859	17694.906250
2599.011719	17717.792969
2598.142578	17737.792969
2597.273438	17803.798828
2596.403320	17858.281250
2595.534180	17610.892578
2594.664063	17947.066406
2593.793945	17898.037109
2592.923828	17877.757813
2592.053711	18032.726563
2591.183594	17558.599609
2590.313477	17839.929688
2589.442383	17957.496094
2588.571289	17552.523438
2587.700195	17871.023438
2586.829102	17804.849609
2585.958008	17919.470703
2585.086914	17999.623047
2584.215820	17901.906250
2583.343750	17781.279297
2582.471680	17930.232422
2581.599609	17821.107422
2580.727539	17852.476563
2579.855469	18035.730469
2578.982422	17992.548828
2578.110352	18066.845703
2577.237305	18072.369141
2576.364258	17969.054688
2575.491211	17788.458984
2574.618164	17831.244141
2573.745117	17988.517578
2572.872070	18065.597656
2571.998047	17973.816406
2571.124023	17904.953125
2570.250000	17807.507813
2569.375977	17767.296875
2568.501953	17767.136719
2567.627930	17664.042969
2566.752930	17889.734375
2565.878906	17998.162109
2565.003906	17775.056641
2564.128906	17966.324219
2563.253906	17886.136719
2562.377930	17908.800781
2561.502930	17934.312500
2560.626953	18108.289063
2559.751953	18108.062500
2558.875977	18067.875000
2558.000000	17964.917969
2557.123047	18158.742188
2556.247070	17941.687500
2555.371094	17975.714844
2554.494141	17869.988281
2553.617188	17824.175781
2552.740234	18146.148438
2551.863281	17994.835938
2550.986328	18034.523438
2550.108398	17954.517578
2549.231445	17675.109375
2548.353516	17672.101563
2547.475586	17854.214844
2546.597656	17774.291016
2545.719727	18036.041016
2544.841797	17887.794922
2543.962891	17861.982422
2543.084961	17813.410156
2542.206055	17992.464844
2541.327148	17941.042969
2540.448242	17935.142578
2539.569336	17883.746094
2538.689453	17923.349609
2537.810547	17971.464844
2536.930664	17897.349609
2536.050781	17726.638672
2535.170898	17985.013672
2534.291016	17871.160156
2533.411133	17805.630859
2532.530273	17791.238281
2531.649414	18074.976563
2530.769531	18012.283203
2529.888672	17872.974609
2529.007813	17770.603516
2528.125977	17827.160156
2527.245117	17747.527344
2526.363281	17614.029297
2525.482422	17636.550781
2524.600586	17477.595703
2523.718750	17681.568359
2522.836914	17607.693359
2521.954102	17678.376953
2521.072266	17579.025391
2520.189453	17695.015625
2519.306641	17921.433594
2518.423828	17609.685547
2517.541016	17799.230469
2516.658203	17705.601563
2515.775391	17937.523438
2514.891602	17716.544922
2514.007813	17699.376953
2513.125000	17509.634766
2512.241211	17642.425781
2511.356445	17797.794922
2510.472656	17856.968750
2509.588867	17582.511719
2508.704102	17723.675781
2507.819336	17695.216797
2506.934570	17579.167969
2506.049805	17460.332031
2505.165039	17615.542969
2504.279297	17759.404297
2503.394531	17584.119141
2502.508789	17696.878906
2501.623047	17809.597656
2500.737305	17716.242188
2499.851563	17566.478516
2498.965820	17642.482422
2498.079102	17690.250000
2497.193359	17681.589844
2496.306641	17447.332031
2495.419922	17839.087891
2494.533203	17669.720703
2493.646484	17506.046875
2492.758789	17793.320313
2491.872070	17528.248047
2490.984375	17753.441406
2490.096680	17589.863281
2489.208984	17564.332031
2488.321289	17451.523438
2487.432617	17558.335938
2486.544922	17448.378906
2485.656250	17600.183594
2484.767578	17766.001953
2483.878906	17554.787109
2482.990234	17689.617188
2482.101563	17605.039063
2481.211914	17675.140625
2480.323242	17694.611328
2479.433594	17506.072266
2478.543945	17553.669922
2477.654297	17584.390625
2476.764648	17561.720703
2475.875000	17657.035156
2474.984375	17701.763672
2474.093750	17726.818359
2473.204102	17544.109375
2472.313477	17821.816406
2471.421875	17714.927734
2470.531250	17493.029297
2469.640625	17526.511719
2468.749023	17593.644531
2467.857422	17615.880859
2466.965820	17949.369141
2466.074219	17612.664063
2465.182617	17662.914063
2464.291016	17757.990234
2463.398438	17600.833984
2462.505859	17726.705078
2461.613281	17538.791016
2460.720703	17757.056641
2459.828125	17726.017578
2458.935547	17602.593750
2458.041992	17473.613281
2457.149414	17568.587891
2456.255859	17660.728516
2455.362305	17696.880859
2454.468750	17595.943359
2453.575195	17637.687500
2452.680664	17455.695313
2451.787109	17754.679688
2450.892578	17477.681641
2449.998047	17784.943359
2449.103516	17932.808594
2448.208984	17625.183594
2447.313477	18027.244141
2446.418945	17688.984375
2445.523438	17831.177734
2444.627930	17537.738281
2443.732422	17545.906250
2442.836914	17933.675781
2441.941406	17537.111328
2441.044922	17659.673828
2440.149414	17715.238281
2439.252930	17887.933594
2438.356445	17907.183594
2437.459961	17753.546875
2436.563477	17783.962891
2435.666016	18003.914063
2434.769531	17933.945313
2433.872070	17752.542969
2432.974609	18019.744141
2432.077148	17874.599609
2431.179688	17857.613281
2430.281250	17645.714844
2429.383789	17865.421875
2428.485352	17859.578125
2427.586914	17831.472656
2426.688477	17856.246094
2425.790039	18111.931641
2424.891602	18119.957031
2423.992188	17894.355469
2423.093750	17816.210938
2422.194336	18174.595703
2421.294922	17990.796875
2420.395508	17948.804688
2419.496094	18159.701172
2418.595703	17667.599609
2417.696289	17853.468750
2416.795898	17972.617188
2415.895508	18230.570313
2414.995117	18430.128906
2414.094727	18149.373047
2413.194336	18137.935547
2412.292969	18082.103516
2411.391602	17973.572266
2410.491211	18081.455078
2409.589844	17986.828125
2408.687500	17903.324219
2407.786133	17891.939453
2406.884766	17977.582031
2405.982422	17985.587891
2405.080078	17899.369141
2404.177734	17948.945313
2403.275391	18056.679688
2402.373047	17959.410156
2401.470703	17975.716797
2400.567383	18130.460938
2399.664063	17795.146484
2398.760742	17952.634766
2397.857422	17927.416016
2396.954102	17857.935547
2396.050781	17821.675781
2395.146484	18117.347656
2394.243164	17898.529297
2393.338867	18097.310547
2392.434570	17906.214844
2391.530273	17800.871094
2390.625000	17916.654297
2389.720703	17852.791016
2388.815430	17841.441406
2387.910156	17705.794922
2387.004883	17868.460938
2386.099609	17741.138672
2385.194336	17644.228516
2384.289063	17773.697266
2383.382813	17883.800781
2382.476563	17828.304688
2381.570313	17756.273438
2380.664063	17847.011719
2379.757813	17761.210938
2378.851563	17989.791016
2377.944336	17694.460938
2377.037109	17832.007813
2376.130859	17922.652344
2375.223633	17699.128906
2374.315430	17787.009766
2373.408203	17935.462891
2372.500977	17745.099609
2371.592773	17645.673828
2370.684570	17460.931641
2369.776367	17722.199219
2368.868164	17666.863281
2367.959961	17958.271484
2367.050781	17845.134766
2366.142578	17740.289063
2365.233398	17847.257813
2364.324219	17668.199219
2363.415039	17816.382813
2362.504883	17741.849609
2361.595703	17788.275391
2360.685547	17760.488281
2359.776367	17798.650391
2358.866211	17817.570313
2357.956055	17880.427734
2357.045898	17583.519531
2356.134766	17907.232422
2355.224609	17690.031250
2354.313477	17503.095703
2353.402344	17777.255859
2352.491211	17930.597656
2351.580078	17694.333984
2350.668945	17820.207031
2349.756836	17858.281250
2348.844727	17679.730469
2347.933594	17783.607422
2347.021484	17632.539063
2346.108398	17752.830078
2345.196289	17640.177734
2344.284180	18264.500000
2343.371094	17527.289063
2342.458008	17798.136719
2341.544922	17608.882813
2340.631836	17627.757813
2339.718750	17646.623047
2338.805664	17991.152344
2337.891602	17796.521484
2336.977539	17588.277344
2336.063477	17877.929688
2335.149414	17576.759766
2334.235352	17685.845703
2333.321289	17592.585938
2332.406250	17786.365234
2331.491211	17884.425781
2330.576172	17758.386719
2329.661133	17875.541016
2328.746094	17815.103516
2327.831055	17896.701172
2326.915039	17617.832031
2326.000000	17923.304688
2325.083984	17786.466797
2324.167969	17797.052734
2323.251953	17971.357422
2322.334961	18028.287109
2321.418945	18000.632813
2320.501953	17825.714844
2319.584961	17961.716797
2318.667969	17721.429688
2317.750977	17800.156250
2316.833984	17707.154297
2315.916016	17777.679688
2314.999023	18147.875000
2314.081055	18152.921875
2313.163086	18021.791016
2312.245117	17939.718750
2311.327148	17808.666016
2310.408203	18036.982422
2309.490234	17941.339844
2308.571289	17783.140625
2307.652344	17959.646484
2306.733398	17834.142578
2305.814453	18171.046875
2304.894531	17961.246094
2303.975586	18167.505859
2303.055664	18033.892578
2302.135742	18014.478516
2301.215820	18204.316406
2300.295898	18030.009766
2299.375000	18105.681641
2298.455078	17999.351563
2297.534180	18134.746094
2296.613281	18194.070313
2295.692383	18245.228516
2294.771484	18019.519531
2293.850586	18206.375000
2292.928711	18333.474609
2292.007813	18080.738281
2291.085938	18121.019531
2290.164063	18337.556641
2289.242188	18364.220703
2288.319336	18396.296875
2287.397461	18328.074219
2286.474609	18305.945313
2285.551758	18389.494141
2284.628906	18356.523438
2283.706055	18486.080078
2282.783203	18382.691406
2281.859375	18398.476563
2280.936523	18462.982422
2280.012695	18565.361328
2279.088867	18467.439453
2278.165039	18637.425781
2277.241211	18323.099609
2276.316406	18482.230469
2275.391602	18438.476563
2274.467773	18470.447266
2273.542969	18672.722656
2272.618164	18323.519531
2271.692383	18269.011719
2270.767578	18176.691406
2269.841797	18154.644531
2268.916992	18761.964844
2267.991211	18364.431641
2267.065430	18412.566406
2266.138672	18387.791016
2265.212891	18514.183594
2264.286133	18457.011719
2263.360352	18583.345703
2262.433594	18329.238281
2261.506836	18374.626953
2260.579102	18511.695313
2259.652344	18551.644531
2258.725586	18513.392578
2257.797852	18520.978516
2256.870117	18431.539063
2255.942383	18463.386719
2255.014648	18511.388672
2254.085938	18473.173828
2253.158203	18634.269531
2252.229492	18359.085938
2251.300781	18439.375000
2250.372070	18681.144531
2249.443359	18346.884766
2248.514648	18419.060547
2247.584961	18413.187500
2246.655273	18595.613281
2245.725586	18780.666016
2244.795898	18293.398438
2243.866211	18392.402344
2242.936523	18378.472656
2242.005859	18273.167969
2241.076172	18450.050781
2240.145508	18583.884766
2239.214844	18521.576172
2238.284180	18722.494141
2237.352539	18472.210938
2236.421875	18297.187500
2235.490234	18028.273438
2234.558594	18408.957031
2233.626953	18231.349609
2232.695313	18383.812500
2231.763672	18348.443359
2230.831055	18444.507813
2229.899414	18484.224609
2228.966797	18609.724609
2228.034180	18322.355469
2227.101563	18345.990234
2226.167969	18163.275391
2225.235352	18355.722656
2224.301758	18341.832031
2223.369141	18649.349609
2222.435547	18402.437500
2221.500977	18227.898438
2220.567383	18454.964844
2219.633789	18542.773438
2218.699219	18255.906250
2217.764648	18549.738281
2216.830078	18434.173828
2215.895508	18417.611328
2214.960938	18406.402344
2214.025391	18456.693359
2213.090820	18367.955078
2212.155273	18637.402344
2211.219727	18305.480469
2210.284180	18286.281250
2209.347656	18381.958984
2208.412109	18154.419922
2207.475586	18335.541016
2206.540039	18206.876953
2205.603516	18171.689453
2204.666992	17960.355469
2203.729492	18301.500000
2202.792969	18314.341797
2201.855469	18409.876953
2200.917969	18003.933594
2199.980469	18531.507813
2199.042969	18424.312500
2198.105469	18407.792969
2197.167969	18135.400391
2196.229492	18257.511719
2195.291016	18243.693359
2194.352539	18309.798828
2193.414063	18205.412109
2192.475586	18292.804688
2191.536133	18326.912109
2190.597656	18430.224609
2189.658203	18267.330078
2188.718750	18128.441406
2187.779297	18364.771484
2186.839844	18172.707031
2185.899414	18174.878906
2184.958984	18086.628906
2184.019531	18274.939453
2183.079102	18255.822266
2182.138672	18348.347656
2181.197266	18105.986328
2180.256836	18464.214844
2179.315430	18229.886719
2178.374023	18383.441406
2177.432617	18369.632813
2176.491211	18520.455078
2175.549805	18275.656250
2174.608398	18206.130859
2173.666016	18380.785156
2172.723633	18560.683594
2171.781250	18583.996094
2170.838867	18485.283203
2169.896484	18368.041016
2168.953125	18518.646484
2168.010742	18398.787109
2167.067383	18448.609375
2166.124023	18657.425781
2165.180664	18415.712891
2164.237305	18298.599609
2163.292969	18237.152344
2162.348633	18284.308594
2161.405273	18519.447266
2160.460938	18473.876953
2159.516602	18565.962891
2158.571289	18512.457031
2157.626953	18527.769531
2156.681641	18416.083984
2155.736328	18463.146484
2154.791016	18372.667969
2153.845703	18406.500000
2152.900391	18456.179688
2151.954102	18627.435547
2151.008789	18624.203125
2150.062500	18779.515625
2149.116211	18728.701172
2148.169922	18648.845703
2147.222656	18497.712891
2146.276367	18850.976563
2145.329102	18493.929688
2144.381836	18767.882813
2143.434570	18593.076172
2142.487305	18880.109375
2141.540039	18837.255859
2140.591797	18593.945313
2139.644531	18595.990234
2138.696289	18772.070313
2137.748047	18842.630859
2136.799805	18697.015625
2135.850586	18986.310547
2134.902344	19325.572266
2133.953125	18969.177734
2133.003906	18955.345703
2132.054688	18746.625000
2131.105469	18993.525391
2130.156250	18895.445313
2129.206055	18955.337891
2128.256836	18886.248047
2127.306641	18872.441406
2126.356445	19211.185547
2125.406250	19063.169922
2124.455078	19136.126953
2123.504883	19056.544922
2122.553711	18819.240234
2121.602539	18997.347656
2120.651367	19117.570313
2119.700195	19043.298828
2118.748047	19160.843750
2117.796875	19123.363281
2116.844727	18765.478516
2115.892578	18948.656250
2114.940430	19173.777344
2113.988281	18955.193359
2113.035156	18820.669922
2112.083008	19045.693359
2111.129883	18871.843750
2110.176758	19102.025391
2109.223633	19056.740234
2108.270508	19113.738281
2107.316406	18981.945313
2106.363281	19057.283203
2105.409180	19232.189453
2104.455078	19163.333984
2103.500977	18905.859375
2102.546875	19064.982422
2101.591797	19221.429688
2100.637695	19204.992188
2099.682617	19149.287109
2098.727539	19122.394531
2097.772461	19150.474609
2096.817383	19144.525391
2095.861328	19099.332031
2094.906250	19250.345703
2093.950195	18951.451172
2092.994141	19243.644531
2092.038086	19057.279297
2091.081055	19043.505859
2090.125000	19108.144531
2089.167969	19157.080078
2088.210938	19143.294922
2087.253906	19085.103516
2086.296875	18831.048828
2085.339844	19088.904297
2084.381836	19247.455078
2083.424805	18933.462891
2082.466797	19381.691406
2081.508789	18950.353516
2080.550781	19200.132813
2079.591797	19011.578125
2078.633789	19117.808594
2077.674805	18991.916016
2076.715820	19205.009766
2075.756836	19021.794922
2074.797852	18898.589844
2073.837891	18957.837891
2072.878906	19024.880859
2071.918945	18969.466797
2070.958984	18841.144531
2069.999023	18970.669922
2069.039063	19068.904297
2068.078125	18870.343750
2067.118164	19012.806641
2066.157227	18978.265625
2065.196289	19076.427734
2064.235352	19054.894531
2063.274414	18895.517578
2062.312500	18798.607422
2061.351563	19037.130859
2060.389648	18820.648438
2059.427734	19144.851563
2058.465820	18936.222656
2057.503906	18935.519531
2056.541016	19023.136719
2055.578125	18814.634766
2054.616211	18948.986328
2053.653320	18699.027344
2052.689453	18973.527344
2051.726563	18856.017578
2050.763672	19241.980469
2049.799805	19064.789063
2048.835938	18988.828125
2047.872070	18757.273438
2046.908203	19031.474609
2045.943359	18776.658203
2044.979492	18721.535156
2044.014648	19120.003906
2043.049805	18930.087891
2042.084961	18947.511719
2041.120117	18905.347656
2040.155273	19093.710938
2039.189453	18795.166016
2038.223633	18690.910156
2037.257813	19088.892578
2036.291992	18831.914063
2035.326172	19165.037109
2034.360352	19001.277344
2033.393555	18966.917969
2032.426758	19377.433594
2031.459961	19004.257813
2030.493164	18615.697266
2029.526367	18995.037109
2028.558594	19123.535156
2027.591797	18939.304688
2026.624023	18969.583984
2025.656250	19046.353516
2024.688477	19086.933594
2023.719727	19194.640625
2022.751953	19069.939453
2021.783203	19175.029297
2020.814453	19073.601563
2019.845703	19047.044922
2018.876953	18968.894531
2017.908203	19130.677734
2016.938477	19390.412109
2015.968750	19188.460938
2014.999023	18865.398438
2014.029297	19143.087891
2013.059570	19222.218750
2012.089844	19352.861328
2011.119141	19238.689453
2010.148438	19173.501953
2009.177734	19255.144531
2008.207031	19290.406250
2007.236328	19119.677734
2006.264648	19417.523438
2005.293945	19339.488281
2004.322266	19135.386719
2003.350586	19252.966797
2002.378906	19306.193359
2001.407227	19446.849609
2000.434570	19294.298828
1999.461914	19476.042969
1998.489258	19439.218750
1997.516602	19530.916016
1996.543945	19357.898438
1995.571289	19611.441406
1994.597656	19615.716797
1993.625000	19568.623047
1992.651367	19629.398438
1991.677734	19346.107422
1990.703125	19355.558594
1989.729492	19716.628906
1988.754883	19785.031250
1987.781250	19489.078125
1986.806641	19529.277344
1985.831055	19943.923828
1984.856445	19686.562500
1983.881836	19590.816406
1982.906250	19641.218750
1981.930664	19645.470703
1980.955078	19501.089844
1979.979492	19802.568359
1979.003906	19599.292969
1978.027344	20008.216797
1977.050781	19943.255859
1976.075195	19524.992188
1975.098633	19723.802734
1974.121094	20032.599609
1973.144531	19765.515625
1972.166992	19882.306641
1971.190430	20037.423828
1970.212891	19785.826172
1969.235352	19723.544922
1968.256836	19651.058594
1967.279297	19841.894531
1966.300781	19876.755859
1965.322266	19768.501953
1964.343750	19859.572266
1963.365234	19948.054688
1962.386719	19855.167969
1961.407227	19780.187500
1960.428711	19850.763672
1959.449219	19658.384766
1958.469727	19805.523438
1957.490234	19906.677734
1956.509766	19959.318359
1955.530273	19874.189453
1954.549805	20266.029297
1953.569336	19867.224609
1952.588867	20052.410156
1951.608398	19931.634766
1950.626953	19907.751953
1949.646484	19914.453125
1948.665039	20147.906250
1947.683594	19981.343750
1946.702148	19926.902344
1945.719727	19841.921875
1944.738281	20133.779297
1943.755859	20000.423828
1942.773438	19724.589844
1941.791016	19973.052734
1940.808594	19829.617188
1939.826172	19953.326172
1938.842773	19723.470703
1937.859375	19872.583984
1936.876953	19914.861328
1935.892578	20023.214844
1934.909180	19846.876953
1933.925781	19848.476563
1932.941406	19857.697266
1931.957031	19993.923828
1930.972656	19901.523438
1929.988281	19872.638672
1929.003906	19907.232422
1928.018555	19802.203125
1927.034180	19991.613281
1926.048828	19805.402344
1925.063477	19654.773438
1924.078125	19910.060547
1923.091797	19810.189453
1922.106445	19895.462891
1921.120117	19744.921875
1920.133789	19860.593750
1919.147461	19679.697266
1918.161133	19683.843750
1917.173828	19753.859375
1916.187500	19793.453125
1915.200195	19503.789063
1914.212891	19682.681641
1913.225586	19762.771484
1912.237305	19893.458984
1911.250000	19454.658203
1910.261719	19742.236328
1909.273438	19690.699219
1908.285156	19649.296875
1907.296875	19683.781250
1906.307617	19538.718750
1905.319336	19686.976563
1904.330078	19433.271484
1903.340820	19915.097656
1902.351563	19527.515625
1901.362305	19721.142578
1900.372070	19702.521484
1899.382813	19744.517578
1898.392578	19667.820313
1897.402344	19843.611328
1896.412109	19597.800781
1895.420898	19705.400391
1894.430664	19646.423828
1893.439453	19600.080078
1892.448242	19450.333984
1891.457031	19620.929688
1890.465820	19609.914063
1889.473633	19457.722656
1888.482422	19451.779297
1887.490234	19592.009766
1886.498047	19512.970703
1885.505859	19867.281250
1884.512695	19548.927734
1883.520508	19789.777344
1882.527344	19771.187500
1881.534180	19649.384766
1880.541016	19942.945313
1879.547852	19891.619141
1878.554688	19732.115234
1877.560547	19806.630859
1876.566406	19747.808594
1875.572266	19694.035156
1874.578125	19733.314453
1873.583984	20013.923828
1872.589844	19852.046875
1871.594727	19825.935547
1870.599609	19716.914063
1869.604492	19874.224609
1868.609375	19762.718750
1867.613281	20070.646484
1866.618164	19811.000000
1865.622070	19865.253906
1864.625977	19748.804688
1863.629883	19890.882813
1862.633789	19847.234375
1861.636719	19954.121094
1860.640625	20098.593750
1859.643555	19884.398438
1858.646484	20141.662109
1857.649414	19809.707031
1856.651367	19748.568359
1855.654297	19940.560547
1854.656250	19992.169922
1853.658203	19986.142578
1852.660156	20225.578125
1851.662109	20304.656250
1850.664063	20251.001953
1849.665039	20302.507813
1848.666016	20068.658203
1847.666992	20142.699219
1846.667969	20084.103516
1845.668945	19922.962891
1844.668945	20234.599609
1843.669922	20013.468750
1842.669922	20329.978516
1841.669922	20496.386719
1840.668945	20300.316406
1839.668945	20459.171875
1838.667969	20280.666016
1837.667969	20534.394531
1836.666992	20233.552734
1835.665039	20252.458984
1834.664063	20376.224609
1833.663086	20172.923828
1832.661133	20403.980469
1831.659180	20263.130859
1830.657227	20404.267578
1829.655273	20298.390625
1828.652344	20185.068359
1827.650391	20333.623047
1826.647461	20095.669922
1825.644531	20206.792969
1824.641602	20407.603516
1823.638672	20127.396484
1822.634766	20188.625000
1821.631836	20379.365234
1820.627930	20345.880859
1819.624023	19986.193359
1818.619141	20378.535156
1817.615234	20305.238281
1816.610352	20346.453125
1815.606445	20534.470703
1814.601563	20140.232422
1813.596680	20251.103516
1812.590820	20098.302734
1811.585938	20030.099609
1810.580078	20046.453125
1809.574219	20154.773438
1808.568359	20086.595703
1807.562500	20189.900391
1806.556641	19987.576172
1805.549805	20602.570313
1804.542969	20353.056641
1803.536133	20168.191406
1802.529297	20221.730469
1801.522461	20297.591797
1800.514648	20125.240234
1799.507813	20081.982422
1798.500000	19979.195313
1797.492188	20218.757813
1796.484375	20101.101563
1795.475586	20102.507813
1794.467773	20193.166016
1793.458984	20219.341797
1792.450195	20148.853516
1791.441406	20222.107422
1790.431641	20072.363281
1789.422852	19806.251953
1788.413086	20144.519531
1787.403320	19791.820313
1786.393555	20112.640625
1785.383789	20136.312500
1784.374023	19989.210938
1783.363281	20037.638672
1782.352539	19987.091797
1781.341797	19971.189453
1780.331055	19972.603516
1779.320313	20075.394531
1778.308594	19698.541016
1777.297852	19939.761719
1776.286133	19817.611328
1775.274414	20271.222656
1774.261719	20018.119141
1773.250000	19972.587891
1772.237305	19877.679688
1771.225586	19990.212891
1770.212891	19981.738281
1769.199219	20015.226563
1768.186523	20083.251953
1767.173828	20119.177734
1766.160156	20009.537109
1765.146484	19825.939453
1764.132813	19797.769531
1763.119141	19954.533203
1762.104492	19951.001953
1761.090820	20063.314453
1760.076172	20086.869141
1759.061523	19928.087891
1758.046875	19769.361328
1757.031250	20150.093750
1756.016602	20020.933594
1755.000977	19950.910156
1753.985352	19829.214844
1752.969727	19803.550781
1751.954102	19758.208984
1750.937500	19949.083984
1749.920898	20004.589844
1748.905273	19814.121094
1747.888672	19815.529297
1746.871094	19787.431641
1745.854492	19774.093750
1744.836914	19910.685547
1743.820313	19907.158203
1742.802734	19778.326172
1741.785156	19823.953125
1740.766602	19813.072266
1739.749023	19797.281250
1738.730469	19783.953125
1737.711914	19971.917969
1736.693359	20042.007813
1735.674805	19883.859375
1734.655273	19868.068359
1733.636719	19955.308594
1732.617188	20135.714844
1731.597656	19933.521484
1730.578125	19888.306641
1729.558594	20004.894531
1728.538086	19986.642578
1727.517578	20059.060547
1726.497070	19901.154297
1725.476563	19593.882813
1724.456055	19943.078125
1723.435547	20091.359375
1722.414063	19803.800781
1721.392578	20030.380859
1720.371094	20075.775391
1719.349609	20072.214844
1718.327148	20117.583984
1717.305664	20150.705078
1716.283203	20240.064453
1715.260742	19994.398438
1714.238281	20340.451172
1713.215820	20033.744141
1712.192383	20206.150391
1711.168945	20302.746094
1710.146484	20169.662109
1709.123047	20087.919922
1708.098633	20272.400391
1707.075195	20239.501953
1706.050781	20272.527344
1705.026367	20281.132813
1704.001953	20423.958984
1702.977539	20425.212891
1701.953125	20521.607422
1700.927734	20927.738281
1699.903320	21002.058594
1698.877930	20969.070313
1697.852539	20721.564453
1696.826172	20964.060547
1695.800781	20862.859375
1694.774414	20754.382813
1693.748047	20589.912109
1692.721680	20474.214844
1691.695313	20609.384766
1690.668945	20574.072266
1689.641602	20633.710938
1688.614258	20547.291016
1687.586914	20482.800781
1686.559570	20401.302734
1685.532227	20679.863281
1684.503906	20457.291016
1683.475586	20589.833984
1682.447266	20311.433594
1681.418945	20706.492188
1680.390625	20547.259766
1679.362305	20492.578125
1678.333008	20673.583984
1677.303711	20745.214844
1676.274414	20547.226563
1675.245117	20728.125000
1674.214844	20549.630859
1673.185547	20832.416016
1672.155273	20462.232422
1671.125000	20710.958984
1670.094727	20741.240234
1669.063477	20887.947266
1668.033203	20879.380859
1667.001953	20764.123047
1665.970703	20784.673828
1664.939453	20725.224609
1663.908203	20639.136719
1662.875977	20841.431641
1661.844727	20808.650391
1660.812500	20843.705078
1659.780273	20982.884766
1658.748047	21165.599609
1657.714844	20980.259766
1656.682617	20947.478516
1655.649414	20771.921875
1654.616211	20889.208984
1653.583008	20675.015625
1652.548828	21017.228516
1651.515625	20641.052734
1650.481445	20644.630859
1649.447266	20916.556641
1648.413086	20818.564453
1647.378906	20979.191406
1646.343750	20719.333984
1645.308594	20674.574219
1644.274414	20726.447266
1643.239258	20553.708984
1642.203125	20641.800781
1641.167969	20732.273438
1640.131836	20629.621094
1639.095703	20507.697266
1638.059570	20808.056641
1637.023438	20739.216797
1635.987305	20996.011719
1634.950195	20705.300781
1633.913086	20942.720703
1632.876953	20869.078125
1631.838867	20906.333984
1630.801758	20594.154297
1629.764648	20845.876953
1628.726563	21116.781250
1627.688477	21023.902344
1626.650391	20967.177734
1625.612305	20963.439453
1624.573242	21072.841797
1623.534180	21220.712891
1622.496094	21188.052734
1621.457031	21338.255859
1620.416992	21000.085938
1619.377930	20837.605469
1618.337891	21230.656250
1617.298828	21315.826172
1616.258789	21518.751953
1615.217773	21269.771484
1614.177734	21419.765625
1613.136719	21425.554688
1612.096680	21611.496094
1611.055664	21792.568359
1610.014648	21812.693359
1608.972656	21772.789063
1607.931641	22054.546875
1606.889648	21995.414063
1605.847656	22284.228516
1604.805664	22210.679688
1603.763672	22223.505859
1602.720703	22389.814453
1601.678711	22508.105469
1600.635742	22559.226563
1599.592773	22785.306641
1598.549805	22666.207031
1597.505859	22743.626953
1596.462891	22696.445313
1595.418945	22955.869141
1594.375000	23097.853516
1593.331055	23378.658203
1592.286133	23422.363281
1591.242188	23332.013672
1590.197266	23531.259766
1589.152344	23711.292969
1588.107422	23793.177734
1587.062500	24190.751953
1586.016602	24274.912109
1584.971680	24304.048828
1583.925781	24567.447266
1582.879883	24704.074219
1581.833008	24604.072266
1580.787109	24740.642578
1579.740234	25149.488281
1578.693359	25099.613281
1577.646484	25197.810547
1576.599609	25358.048828
1575.552734	25663.841797
1574.504883	25599.587891
1573.457031	25867.044922
1572.409180	25965.011719
1571.361328	26160.744141
1570.313477	26261.007813
1569.264648	26652.148438
1568.215820	26590.164063
1567.166992	26840.464844
1566.118164	26907.164063
1565.069336	26990.517578
1564.019531	27042.869141
1562.969727	27361.984375
1561.920898	27804.826172
1560.870117	27730.800781
1559.820313	27563.951172
1558.770508	28025.558594
1557.719727	28375.144531
1556.668945	28524.732422
1555.618164	28591.000000
1554.567383	28697.677734
1553.515625	28694.921875
1552.464844	29139.179688
1551.413086	29195.775391
1550.361328	29176.289063
1549.309570	29344.550781
1548.256836	29386.818359
1547.204102	29516.968750
1546.152344	29509.310547
1545.099609	29691.634766
1544.045898	29985.486328
1542.993164	30048.960938
1541.939453	30126.654297
1540.886719	30023.964844
1539.833008	30134.847656
1538.779297	30608.638672
1537.724609	30399.183594
1536.670898	30488.593750
1535.616211	30620.648438
1534.561523	30683.908203
1533.506836	30740.035156
1532.452148	30779.552734
1531.396484	30672.162109
1530.340820	30683.250000
1529.285156	30469.333984
1528.229492	30890.109375
1527.173828	30609.939453
1526.118164	30879.041016
1525.061523	30849.839844
1524.004883	30541.429688
1522.948242	30540.687500
1521.891602	30092.880859
1520.833984	30347.636719
1519.777344	30446.238281
1518.719727	30149.992188
1517.662109	30310.046875
1516.603516	30214.808594
1515.545898	30240.109375
1514.487305	30260.673828
1513.429688	30148.957031
1512.371094	29720.824219
1511.311523	29982.308594
1510.252930	30085.527344
1509.193359	29886.583984
1508.134766	29666.472656
1507.075195	29795.642578
1506.014648	29882.300781
1504.955078	30086.859375
1503.895508	29723.013672
1502.834961	29908.664063
1501.774414	29809.001953
1500.713867	30011.066406
1499.652344	30175.351563
1498.591797	29915.476563
1497.530273	30228.126953
1496.468750	30093.162109
1495.407227	30137.212891
1494.345703	30367.246094
1493.283203	30792.576172
1492.220703	30619.945313
1491.159180	30694.457031
1490.095703	30759.527344
1489.033203	30913.962891
1487.970703	31063.636719
1486.907227	31022.787109
1485.843750	31052.482422
1484.780273	31265.513672
1483.716797	31440.865234
1482.652344	31472.814453
1481.588867	31556.437500
1480.524414	31487.349609
1479.459961	31876.242188
1478.394531	31654.492188
1477.330078	32069.037109
1476.264648	32298.000000
1475.200195	32318.013672
1474.133789	32720.480469
1473.068359	32897.585938
1472.002930	33445.226563
1470.936523	33075.718750
1469.870117	33304.246094
1468.803711	33523.312500
1467.737305	33920.433594
1466.670898	33935.429688
1465.603516	34088.656250
1464.536133	34368.324219
1463.468750	34537.808594
1462.401367	35105.332031
1461.333984	35417.445313
1460.265625	35621.757813
1459.197266	36092.816406
1458.128906	36048.882813
1457.060547	36533.730469
1455.992188	36398.500000
1454.922852	36745.117188
1453.854492	36871.796875
1452.785156	37526.812500
1451.714844	37704.726563
1450.645508	37761.046875
1449.575195	37642.093750
1448.505859	38146.968750
1447.435547	38413.402344
1446.365234	38499.910156
1445.293945	38467.296875
1444.223633	38551.425781
1443.152344	38481.464844
1442.081055	38698.582031
1441.009766	38682.281250
1439.938477	38840.957031
1438.866211	38619.375000
1437.793945	38621.753906
1436.721680	38495.886719
1435.649414	38754.718750
1434.577148	38050.820313
1433.503906	37922.789063
1432.431641	38207.210938
1431.358398	38177.035156
1430.285156	37725.292969
1429.210938	37695.210938
1428.137695	37381.085938
1427.063477	37185.792969
1425.989258	36820.664063
1424.915039	36883.843750
1423.840820	36572.410156
1422.765625	36044.750000
1421.691406	36287.117188
1420.616211	36138.730469
1419.541016	35846.250000
1418.464844	35867.683594
1417.389648	35607.890625
1416.313477	35448.109375
1415.237305	35367.378906
1414.161133	34984.699219
1413.084961	34720.601563
1412.007813	34542.511719
1410.931641	34787.019531
1409.854492	34465.066406
1408.777344	34101.457031
1407.700195	34157.957031
1406.622070	33880.367188
1405.543945	33549.523438
1404.466797	33504.050781
1403.387695	33041.226563
1402.309570	32956.449219
1401.231445	32871.699219
1400.152344	32909.800781
1399.073242	32621.189453
1397.994141	32661.636719
1396.915039	32442.658203
1395.834961	32103.335938
1394.755859	31926.208984
1393.675781	31894.984375
1392.595703	31595.289063
1391.514648	31862.648438
1390.434570	31773.607422
1389.353516	31228.886719
1388.272461	31223.250000
1387.191406	31007.185547
1386.110352	30888.300781
1385.029297	30954.384766
1383.947266	30763.904297
1382.865234	30423.292969
1381.783203	30558.730469
1380.701172	30629.441406
1379.618164	30552.316406
1378.536133	30609.144531
1377.453125	30273.478516
1376.370117	30131.826172
1375.286133	29902.525391
1374.203125	29846.361328
1373.119141	30189.326172
1372.035156	29999.347656
1370.951172	29862.478516
1369.867188	29714.126953
1368.783203	29766.392578
1367.698242	29756.406250
1366.613281	29329.306641
1365.528320	29397.738281
1364.443359	29295.671875
1363.357422	28908.039063
1362.272461	28955.781250
1361.186523	28817.007813
1360.100586	28740.437500
1359.013672	28581.037109
1357.927734	28472.318359
1356.840820	28529.291016
1355.753906	28393.015625
1354.666992	28196.988281
1353.580078	28109.109375
1352.492188	28064.943359
1351.405273	28144.917969
1350.317383	28054.792969
1349.229492	27863.595703
1348.140625	27621.921875
1347.052734	27796.093750
1345.963867	27481.025391
1344.875000	27290.064453
1343.786133	27420.578125
1342.697266	27362.824219
1341.608398	27135.265625
1340.518555	27229.021484
1339.428711	27265.388672
1338.338867	26902.640625
1337.248047	26959.691406
1336.158203	27021.304688
1335.067383	27039.339844
1333.976563	26800.658203
1332.885742	26685.810547
1331.794922	26763.462891
1330.703125	26550.158203
1329.612305	26497.253906
1328.520508	26327.580078
1327.428711	26604.427734
1326.335938	26235.640625
1325.244141	26320.150391
1324.151367	26249.023438
1323.058594	26283.164063
1321.965820	26420.226563
1320.873047	26282.792969
1319.779297	26069.949219
1318.685547	25976.064453
1317.591797	25845.640625
1316.498047	25870.667969
1315.404297	25932.246094
1314.309570	25865.865234
1313.214844	25628.195313
1312.121094	25749.156250
1311.025391	25831.257813
1309.930664	25753.523438
1308.834961	25547.996094
1307.740234	25477.185547
1306.644531	25392.710938
1305.547852	25358.451172
1304.452148	25191.916016
1303.355469	25068.765625
1302.259766	25310.462891
1301.163086	25194.173828
1300.065430	24852.287109
1298.968750	24772.580078
1297.871094	24945.800781
1296.774414	24968.613281
1295.676758	24950.419922
1294.578125	24854.810547
1293.480469	24968.691406
1292.381836	24845.794922
1291.283203	24779.839844
1290.184570	24725.285156
1289.085938	24923.279297
1287.987305	24675.371094
1286.887695	24654.974609
1285.788086	24716.441406
1284.688477	24591.466797
1283.588867	24598.369141
1282.488281	24339.376953
1281.388672	24280.427734
1280.288086	24314.640625
1279.187500	24271.613281
1278.085938	23987.882813
1276.985352	24258.261719
1275.883789	24201.646484
1274.782227	24117.812500
1273.680664	24022.664063
1272.579102	24034.183594
1271.476563	24224.908203
1270.375000	24057.208984
1269.272461	24211.574219
1268.169922	23998.593750
1267.066406	24098.507813
1265.963867	23824.429688
1264.860352	23788.378906
1263.756836	24060.457031
1262.653320	23999.457031
1261.549805	23795.798828
1260.445313	23653.351563
1259.340820	23744.138672
1258.236328	23816.785156
1257.131836	23780.773438
1256.027344	23545.656250
1254.921875	23613.771484
1253.816406	23503.169922
1252.710938	23555.435547
1251.605469	23306.960938
1250.500000	23494.878906
1249.393555	23449.923828
1248.287109	23377.865234
1247.180664	22998.552734
1246.074219	22874.644531
1244.966797	22703.349609
1243.860352	22516.308594
1242.752930	22482.863281
1241.645508	22361.392578
1240.538086	22188.054688
1239.429688	22156.939453
1238.321289	21584.365234
1237.212891	21641.343750
1236.104492	21481.791016
1234.996094	21038.177734
1233.887695	21007.296875
1232.778320	20863.722656
1231.668945	20835.136719
1230.559570	20443.785156
1229.449219	20289.125000
1228.339844	20208.849609
1227.229492	20263.724609
1226.119141	20075.402344
1225.008789	19929.923828
1223.898438	19933.048828
1222.787109	19960.925781
1221.675781	19759.292969
1220.564453	19604.974609
1219.453125	19772.341797
1218.341797	20058.830078
1217.229492	19906.787109
1216.117188	19846.962891
1215.004883	19618.597656
1213.892578	19637.496094
1212.779297	19377.794922
1211.666992	19594.402344
1210.553711	19637.996094
1209.440430	19333.525391
1208.327148	19312.042969
1207.212891	19295.056641
1206.098633	19325.205078
1204.985352	19198.273438
1203.870117	19087.089844
1202.755859	18962.488281
1201.641602	19120.500000
1200.526367	19092.351563
1199.411133	18869.175781
1198.295898	19080.910156
1197.179688	19039.335938
1196.064453	18598.953125
1194.948242	18768.054688
1193.832031	18686.242188
1192.715820	18747.777344
1191.598633	18988.402344
1190.482422	18689.455078
1189.365234	18867.333984
1188.248047	18769.908203
1187.130859	18860.453125
1186.012695	18778.720703
1184.895508	18750.695313
1183.777344	18711.498047
1182.659180	18580.650391
1181.540039	18668.906250
1180.421875	18609.628906
1179.302734	18617.406250
1178.183594	18618.478516
1177.064453	18612.845703
1175.945313	18500.021484
1174.825195	18489.947266
1173.706055	18473.177734
1172.585938	18652.830078
1171.465820	18468.667969
1170.344727	18474.220703
1169.224609	18448.541016
1168.103516	18369.339844
1166.982422	18455.185547
1165.861328	18318.041016
1164.739258	18394.947266
1163.618164	18159.798828
1162.496094	18294.638672
1161.374023	18416.062500
1160.250977	18363.693359
1159.128906	18378.156250
1158.005859	18434.919922
1156.882813	18318.011719
1155.759766	18103.205078
1154.636719	18231.201172
1153.512695	18216.746094
1152.389648	18144.451172
1151.265625	18392.478516
1150.141602	18311.283203
1149.016602	18421.333984
1147.892578	18446.865234
1146.767578	18245.679688
1145.642578	18082.343750
1144.517578	17999.052734
1143.391602	18360.076172
1142.266602	18072.429688
1141.140625	18175.714844
1140.014648	17925.949219
1138.888672	18113.574219
1137.761719	18061.435547
1136.634766	17922.773438
1135.507813	18092.546875
1134.380859	18222.328125
1133.253906	18223.431641
1132.126953	18111.447266
1130.999023	18114.785156
1129.871094	17991.777344
1128.743164	18298.746094
1127.614258	17743.679688
1126.486328	17771.447266
1125.357422	18047.277344
1124.228516	17897.816406
1123.099609	17761.693359
1121.969727	17437.453125
1120.840820	17478.529297
1119.710938	17400.091797
1118.581055	17458.857422
1117.450195	17502.115234
1116.320313	17481.216797
1115.189453	17473.593750
1114.058594	17333.320313
1112.927734	16952.156250
1111.796875	17351.285156
1110.665039	17129.351563
1109.534180	16894.240234
1108.402344	17030.304688
1107.270508	17040.437500
1106.137695	16865.087891
1105.005859	16731.748047
1103.873047	16808.144531
1102.740234	16838.167969
1101.606445	16654.156250
1100.473633	16745.962891
1099.339844	16992.130859
1098.206055	16733.210938
1097.072266	16835.976563
1095.938477	16625.675781
1094.803711	16499.205078
1093.669922	16516.013672
1092.535156	16519.595703
1091.400391	16551.812500
1090.264648	16493.718750
1089.129883	16411.423828
1087.994141	16415.019531
1086.858398	16550.685547
1085.722656	16569.658203
1084.585938	16575.421875
1083.450195	16235.787109
1082.313477	16289.998047
1081.176758	16570.703125
1080.039063	16196.073242
1078.902344	16456.906250
1077.764648	16449.490234
1076.626953	16464.052734
1075.489258	16533.539063
1074.351563	16288.864258
1073.212891	16336.391602
1072.074219	16394.880859
1070.935547	16290.876953
1069.796875	16301.058594
1068.658203	16535.097656
1067.518555	16490.371094
1066.378906	16533.417969
1065.239258	16286.901367
1064.099609	16617.265625
1062.958984	16500.195313
1061.819336	16380.972656
1060.678711	16347.278320
1059.537109	16414.406250
1058.396484	16334.703125
1057.255859	16268.172852
1056.114258	16262.995117
1054.972656	16323.515625
1053.831055	16419.044922
1052.688477	16345.978516
1051.545898	16428.333984
1050.404297	16309.337891
1049.261719	16264.771484
1048.118164	16281.470703
1046.975586	16173.500000
1045.832031	16290.795898
1044.688477	16230.958984
1043.544922	16562.416016
1042.401367	16155.058594
1041.256836	16289.750000
1040.112305	16284.571289
1038.967773	16438.845703
1037.823242	16306.975586
1036.677734	16159.869141
1035.533203	16211.475586
1034.387695	16260.878906
1033.242188	16105.130859
1032.096680	16209.081055
1030.950195	16343.532227
1029.803711	16357.975586
1028.657227	16206.682617
1027.510742	16210.242188
1026.364258	16185.461914
1025.216797	16250.048828
1024.069336	16382.161133
1022.921875	16385.683594
1021.774414	16214.943359
1020.626953	16214.137695
1019.478516	16167.605469
1018.330078	16158.099609
1017.181641	16126.830078
1016.033203	16132.567383
1014.883789	16120.894531
1013.734375	15965.646484
1012.584961	16123.661133
1011.435547	16051.104492
1010.286133	15985.096680
1009.135742	16040.847656
1007.985352	16172.648438
1006.834961	15963.231445
1005.684570	15771.271484
1004.533203	16176.750977
1003.382813	16028.257813
1002.231445	15927.590820
1001.079102	16020.183594
999.927734	15839.240234
998.776367	16044.666992
997.624023	15937.558594
996.471680	15969.333984
995.318359	15860.108398
994.166016	15776.946289
993.012695	15856.432617
991.859375	15838.335938
990.706055	15735.714844
989.552734	15583.288086
988.398438	15708.249023
987.245117	15558.048828
986.090820	15604.996094
984.936523	15541.486328
983.781250	15478.000000
982.625977	15674.295898
981.471680	15454.979492
980.316406	15884.902344
979.160156	15479.570313
978.004883	15392.356445
976.848633	15543.066406
975.692383	15531.551758
974.536133	15582.733398
973.379883	15329.129883
972.222656	15309.013672
971.065430	15383.973633
969.908203	15301.206055
968.750977	15473.333008
967.592773	15464.000000
966.435547	15368.306641
965.277344	15240.267578
964.119141	15066.951172
962.959961	15228.169922
961.801758	15533.878906
960.642578	15293.733398
959.483398	15234.835938
958.324219	15247.118164
957.164063	15171.003906
956.004883	15273.822266
954.844727	15482.201172
953.684570	15214.315430
952.523438	15237.357422
951.363281	15161.311523
950.202148	15257.573242
949.041016	15205.234375
947.879883	15183.051758
946.717773	15246.968750
945.556641	14951.492188
944.394531	15404.851563
943.232422	15371.890625
942.070313	15237.856445
940.907227	15387.714844
939.744141	15326.823242
938.581055	15336.888672
937.417969	15420.019531
936.254883	15314.031250
935.090820	15143.630859
933.926758	15097.873047
932.762695	15193.869141
931.598633	15358.538086
930.433594	15183.958984
929.269531	15327.104492
928.104492	15332.854492
926.939453	15190.558594
925.773438	15097.653320
924.608398	15322.206055
923.442383	14948.397461
922.276367	15305.820313
921.109375	15206.528320
919.943359	15205.859375
918.776367	15173.047852
917.609375	15420.900391
916.442383	15250.972656
915.275391	15391.637695
914.107422	15189.658203
912.939453	15383.801758
911.771484	15256.811523
910.603516	15346.008789
909.435547	15144.184570
908.266602	15237.647461
907.097656	15127.885742
905.928711	15003.195313
904.759766	15090.215820
903.589844	15352.489258
902.419922	15225.686523
901.250000	15109.615234
900.080078	15132.455078
898.909180	15249.272461
897.739258	15143.936523
896.568359	15275.654297
895.397461	15059.338867
894.225586	15013.860352
893.054688	15149.793945
891.882813	14984.828125
890.710938	14945.787109
889.539063	15002.739258
888.366211	15055.404297
887.193359	15097.388672
886.021484	14966.689453
884.847656	15138.683594
883.674805	15063.426758
882.500977	15101.115234
881.328125	15115.357422
880.154297	15020.977539
878.979492	15184.281250
877.805664	15209.143555
876.630859	15050.940430
875.456055	15099.225586
874.281250	15049.615234
873.106445	15108.518555
871.930664	15090.828125
870.754883	15088.030273
869.579102	15072.474609
868.403320	15048.421875
867.227539	15086.012695
866.050781	15236.214844
864.874023	14923.196289
863.697266	14960.788086
862.519531	14979.250977
861.342773	14730.155273
860.165039	14861.172852
858.987305	14803.226563
857.809570	14745.301758
856.630859	15026.892578
855.452148	15045.318359
854.273438	14841.025391
853.094727	14931.580078
851.916016	14761.307617
850.736328	14811.564453
849.556641	14827.889648
848.376953	14882.352539
847.197266	14873.233398
846.017578	14976.386719
844.836914	14929.129883
843.656250	14903.064453
842.475586	14813.495117
841.293945	14827.677734
840.113281	14943.438477
838.931641	15190.343750
837.750000	15011.931641
836.567383	14897.040039
835.385742	14820.254883
834.203125	15136.771484
833.020508	15021.917969
831.837891	14740.133789
830.654297	14832.488281
829.471680	14920.582031
828.288086	14786.839844
827.104492	14826.332031
825.919922	14960.832031
824.736328	14998.164063
823.551758	14853.950195
822.367188	15009.471680
821.182617	14975.030273
819.997070	14978.575195
818.812500	15053.833008
817.626953	15091.102539
816.441406	14951.244141
815.254883	14931.599609
814.069336	15095.330078
812.882813	15067.234375
811.696289	14881.130859
810.508789	15097.440430
809.322266	15023.023438
808.134766	14885.460938
806.947266	14952.167969
805.759766	14991.485352
804.572266	15127.596680
803.383789	14969.073242
802.195313	15157.730469
801.006836	15091.808594
799.818359	15189.943359
798.628906	15294.348633
797.439453	15268.376953
796.250000	15238.210938
795.060547	15180.736328
793.871094	15400.620117
792.680664	15422.960938
791.490234	15403.287109
790.299805	15706.999023
789.109375	15664.183594
787.917969	15860.678711
786.726563	16304.747070
785.535156	16339.479492
784.343750	16657.416016
783.152344	16547.339844
781.959961	16667.986328
780.767578	16813.750000
779.575195	16737.244141
778.381836	16893.417969
777.189453	16875.601563
775.996094	16499.515625
774.802734	16433.597656
773.609375	16045.165039
772.415039	15874.653320
771.220703	15913.566406
770.026367	15659.413086
768.832031	15376.053711
767.637695	15538.490234
766.442383	15322.204102
765.247070	15361.179688
764.051758	15132.458008
762.855469	15058.545898
761.660156	15101.727539
760.463867	14977.685547
759.267578	14981.161133
758.071289	15308.479492
756.874023	15330.690430
755.676758	15154.481445
754.480469	15329.147461
753.282227	15140.475586
752.084961	15290.029297
750.886719	15205.783203
749.688477	15221.725586
748.490234	15160.470703
747.291992	15205.614258
746.092773	15111.017578
744.894531	15160.323242
743.695313	15105.376953
742.495117	14958.742188
741.295898	14987.208008
740.095703	14638.550781
738.895508	14762.886719
737.695313	14743.467773
736.495117	14807.348633
735.293945	14956.564453
734.092773	14691.497070
732.891602	14620.074219
731.690430	14850.388672
730.488281	14768.560547
729.286133	14720.041992
728.083984	14584.197266
726.881836	14749.888672
725.679688	14878.097656
724.476563	14910.650391
723.273438	15223.726563
722.070313	15345.540039
720.866211	15303.204102
719.663086	15711.565430
718.458984	15752.234375
717.254883	15973.508789
716.050781	16001.658203
714.845703	16006.967773
713.640625	16062.073242
712.435547	15791.453125
711.230469	15796.796875
710.025391	15534.621094
708.819336	15411.458984
707.613281	15580.635742
706.407227	15457.509766
705.200195	15562.374023
703.994141	15279.765625
702.787109	15256.192383
701.580078	15327.896484
700.373047	15354.017578
699.165039	15065.445313
697.957031	15104.024414
696.749023	14939.776367
695.541016	15148.030273
694.333008	15265.181641
693.124023	14952.072266
691.915039	15319.438477
690.706055	15070.529297
689.496094	15398.458008
688.287109	15128.958008
687.077148	15351.363281
685.867188	15077.839844
684.656250	15244.398438
683.446289	15235.348633
682.235352	15253.143555
681.024414	15105.773438
679.813477	15053.405273
678.601563	15050.585938
677.390625	15412.973633
676.178711	15174.912109
674.965820	15089.567383
673.753906	14905.269531
672.541016	14947.835938
671.328125	14938.850586
670.115234	14917.501953
668.902344	14801.373047
667.688477	14858.344727
666.475586	14826.722656
665.261719	14896.023438
664.046875	14825.282227
662.833008	14803.974609
661.618164	14576.844727
660.403320	14689.354492
659.188477	14651.622070
657.972656	14648.875000
656.757813	14660.525391
655.541992	14559.069336
654.326172	14484.379883
653.109375	14387.105469
651.893555	14384.407227
650.676758	14519.381836
649.459961	14179.729492
648.242188	14361.933594
647.025391	14398.258789
645.807617	14424.302734
644.589844	14390.802734
643.372070	14246.478516
642.153320	14225.335938
640.935547	14076.992188
639.716797	14234.355469
638.497070	14157.848633
637.278320	14196.203125
636.058594	14185.336914
634.838867	14225.719727
633.619141	14005.808594
632.399414	14224.475586
631.178711	14127.566406
629.958984	14239.616211
628.737305	14107.924805
627.516602	14002.899414
626.295898	14067.824219
625.074219	14071.322266
623.852539	14130.069336
622.630859	14115.138672
621.408203	13916.110352
620.185547	14111.879883
618.962891	14174.663086
617.740234	13971.644531
616.517578	13952.666992
615.293945	13880.559570
614.070313	13933.119141
612.846680	14073.502930
611.623047	14242.427734
610.398438	14004.906250
609.173828	14083.942383
607.949219	14189.487305
606.724609	14127.630859
605.499023	14380.047852
604.274414	14016.226563
603.048828	14339.962891
601.822266	14528.972656
600.596680	14244.850586
599.370117	14280.905273
598.143555	14231.338867
596.916992	14083.969727
595.690430	14150.595703
594.462891	14094.967773
593.235352	14155.455078
592.007813	14179.264648
590.780273	14188.811523
589.551758	14224.818359
588.323242	14313.725586
587.094727	14296.788086
585.866211	14237.131836
584.636719	14474.472656
583.407227	14209.401367
582.177734	14170.125977
580.948242	14307.730469
579.718750	14372.110352
578.488281	14473.043945
577.257813	14519.081055
576.027344	14396.494141
574.795898	14525.797852
573.564453	14577.888672
572.333984	14481.751953
571.101563	14450.605469
569.870117	14561.534180
568.637695	14501.975586
567.405273	14476.927734
566.172852	14460.000977
564.940430	14469.444336
563.707031	14322.759766
562.474609	14449.799805
561.240234	14157.243164
560.006836	14276.160156
558.773438	14322.093750
557.539063	14201.906250
556.304688	14221.506836
555.070313	14243.124023
553.834961	14074.427734
552.599609	13928.060547
551.364258	14002.336914
550.128906	13969.345703
548.893555	14061.791016
547.657227	14235.105469
546.420898	14123.219727
545.184570	13999.245117
543.947266	14039.054688
542.710938	14068.744141
541.473633	14169.144531
540.236328	13932.114258
538.998047	14111.279297
537.760742	14082.362305
536.522461	14101.916016
535.284180	14066.953125
534.045898	14356.967773
532.806641	14243.266602
531.567383	14196.189453
530.328125	14342.787109
529.088867	14332.011719
527.848633	14363.585938
526.609375	14120.955078
525.369141	14112.241211
524.127930	14303.050781
522.887695	14274.155273
521.646484	14241.239258
520.405273	14248.621094
519.164063	14270.095703
517.922852	14452.638672
516.680664	14480.103516
515.438477	14465.291992
514.196289	14808.677734
512.953125	14731.438477
511.710938	14825.208984
510.467773	14709.781250
509.224609	14976.448242
507.980469	15110.326172
506.737305	15304.454102
505.493164	15522.624023
504.249023	15487.541016
503.004883	15705.591797
501.759766	15817.108398
500.514648	16143.453125
499.269531	16397.392578
498.024414	16717.480469
496.778320	17119.734375
495.532227	17287.058594
494.286133	17681.025391
493.040039	17972.542969
491.793945	18179.718750
490.546875	18154.224609
489.299805	18092.652344
488.052734	17866.746094
486.804688	17723.087891
485.557617	17333.041016
484.309570	17315.738281
483.060547	17298.441406
481.812500	17405.302734
480.563477	17065.660156
479.314453	16948.332031
478.065430	16779.015625
476.816406	16681.794922
475.566406	16356.546875
474.316406	16565.468750
473.066406	16258.362305
471.816406	16421.234375
470.565430	16220.220703
469.314453	16297.094727
468.063477	16108.166992
466.812500	16171.046875
465.560547	16146.010742
464.309570	16043.094727
463.056641	16030.071289
461.804688	15911.243164
460.552734	15766.511719
459.299805	15847.340820
458.046875	15840.346680
456.792969	15657.805664
455.540039	15658.827148
454.286133	15689.758789
453.032227	15505.354492
451.778320	15612.049805
450.523438	15613.076172
449.269531	15357.054688
448.014648	15322.266602
446.758789	15315.377930
445.503906	15202.942383
444.248047	15140.326172
442.992188	15093.658203
441.736328	15062.930664
440.480469	15253.100586
439.223633	14864.226563
437.966797	14925.061523
436.709961	14995.816406
435.452148	15060.579102
434.195313	14685.950195
432.937500	14907.774414
431.679688	14956.615234
430.420898	14838.534180
429.162109	15125.756836
427.904297	15033.506836
426.644531	15002.852539
425.385742	15138.985352
424.125977	15026.932617
422.867188	14903.013672
421.606445	15108.536133
420.346680	15212.799805
419.085938	15293.220703
417.826172	15591.759766
416.565430	15459.916016
415.303711	15558.083008
414.042969	15699.817383
412.781250	15738.450195
411.519531	16092.093750
410.256836	16368.346680
408.995117	17397.099609
407.732422	19461.089844
406.469727	22906.189453
405.207031	27628.679688
403.943359	34462.988281
402.679688	44895.863281
401.416016	69511.070313
400.152344	101077.179688
398.887695	94903.875000
397.624023	55305.089844
396.358398	29311.738281
395.093750	21210.802734
393.829102	18764.394531
392.563477	17763.119141
391.297852	17208.638672
390.032227	16780.761719
388.765625	16941.455078
387.499023	16458.513672
386.232422	16404.064453
384.965820	16250.964844
383.699219	16135.411133
382.431641	15927.185547
381.164063	15908.375977
379.896484	15934.927734
378.627930	15851.062500
377.359375	15999.824219
376.090820	15992.837891
374.822266	16342.495117
373.553711	16640.798828
372.284180	17618.515625
371.014648	19625.791016
369.745117	22843.173828
368.474609	27281.785156
367.205078	34188.734375
365.934570	45825.550781
364.663086	62221.007813
363.392578	76749.414063
362.121094	75049.375000
360.849609	60555.417969
359.578125	46302.886719
358.306641	37571.054688
357.034180	32483.978516
355.761719	28840.984375
354.489258	25757.267578
353.215820	23220.724609
351.943359	21641.447266
350.669922	20127.560547
349.396484	19224.712891
348.122070	18218.193359
346.847656	17582.906250
345.574219	17120.496094
344.298828	16703.375000
343.024414	16358.969727
341.749023	16016.655273
340.473633	15764.644531
339.198242	15395.133789
337.922852	15094.347656
336.646484	15060.122070
335.370117	14826.112305
334.093750	14876.161133
332.816406	14699.057617
331.540039	14453.501953
330.262695	14382.239258
328.985352	14142.707031
327.707031	14194.791992
326.429688	14104.054688
325.151367	13939.031250
323.873047	13858.153320
322.593750	13963.037109
321.314453	13645.666992
320.035156	13705.600586
318.755859	13421.616211
317.476563	13446.404297
316.196289	13623.530273
314.916016	13628.740234
313.635742	13419.178711
312.355469	13262.402344
311.074219	13527.252930
309.792969	13403.686523
308.511719	13366.008789
307.229492	13228.865234
305.948242	13181.483398
304.666016	13325.203125
303.383789	13049.732422
302.100586	13047.238281
300.818359	13319.515625
299.535156	13118.238281
298.250977	13170.274414
296.967773	13272.928711
295.683594	13233.393555
294.399414	13075.115234
293.115234	13249.747070
291.831055	13416.525391
290.545898	13400.340820
289.260742	13442.521484
287.975586	13387.436523
286.690430	13674.625977
285.404297	13567.021484
284.118164	13787.973633
282.832031	13824.206055
281.544922	13786.585938
280.258789	13686.809570
278.971680	13695.845703
277.683594	13928.210938
276.396484	13779.921875
275.108398	13575.391602
273.820313	13718.362305
272.532227	13863.218750
271.243164	13682.069336
269.955078	13902.527344
268.666016	13884.351563
267.376953	13906.901367
266.086914	13751.083008
264.796875	13734.882813
263.506836	13827.211914
262.216797	13578.493164
260.926758	13719.246094
259.635742	13859.943359
258.344727	13611.359375
257.053711	13903.038086
255.761719	13939.088867
254.469727	13884.165039
253.177734	13777.016602
251.885742	13903.995117
250.593750	13644.079102
249.300781	13711.083984
248.007813	13375.895508
246.713867	13498.985352
245.420898	13419.088867
244.126953	13333.424805
242.833008	13454.517578
241.539063	13353.424805
240.244141	13225.333008
238.949219	13265.277344
237.654297	13102.500000
236.359375	13231.238281
235.063477	13201.684570
233.768555	13145.128906
232.472656	13202.409180
231.175781	13209.520508
229.879883	13241.696289
228.583008	13256.507813
227.286133	13207.703125
225.988281	13245.640625
224.691406	13360.636719
223.393555	13313.764648
222.095703	13261.131836
220.796875	13304.804688
219.499023	13311.877930
218.200195	13445.997070
216.901367	13449.189453
215.601563	13642.880859
214.302734	13547.916992
213.002930	13612.638672
211.703125	13771.568359
210.402344	13882.367188
209.102539	14114.234375
207.801758	14232.612305
206.500000	14439.339844
205.199219	14257.886719
203.897461	13928.591797
202.595703	13747.305664
201.293945	13473.918945
199.992188	13498.208008
198.689453	13274.878906
197.386719	13345.252930
196.083984	13131.631836
194.780273	13186.658203
193.477539	13063.291992
192.173828	13035.853516
190.869141	12975.831055
189.565430	13084.514648
188.260742	13099.248047
186.956055	12905.117188
185.651367	12774.280273
184.345703	12783.317383
183.040039	12882.355469
181.734375	12877.963867
180.428711	12959.715820
179.122070	12924.687500
177.816406	13012.138672
176.508789	12913.976563
175.202148	12997.569336
173.895508	12817.211914
172.587891	12738.262695
171.280273	12886.836914
169.971680	12769.676758
168.664063	12717.535156
167.355469	12684.517578
166.046875	12729.833008
164.737305	12735.022461
163.427734	12698.200195
162.119141	12657.573242
160.808594	12502.435547
159.499023	12473.311523
158.188477	12297.278320
156.877930	12287.280273
155.567383	12214.344727
154.256836	12179.574219
152.945313	12243.958984
151.633789	12310.223633
150.322266	12176.350586
149.009766	12341.686523
147.697266	12249.769531
146.384766	12375.026367
145.072266	12113.649414
143.759766	12389.298828
142.446289	12407.851563
141.132813	12409.266602
139.818359	12315.537109
138.504883	12277.015625
137.190430	12044.487305
135.875977	11987.013672
134.560547	12106.394531
133.246094	11963.382813
131.930664	12139.741211
130.615234	12038.583984
129.298828	12038.163086
127.983398	12037.741211
126.666992	11986.040039
125.350586	11928.661133
124.033203	11816.248047
122.716797	11874.708984
121.399414	11925.555664
120.081055	11892.896484
118.763672	11788.163086
117.445313	11670.191406
116.126953	11677.421875
114.808594	11637.250000
113.489258	11733.573242
112.170898	11414.810547
110.851563	11410.711914
109.531250	11332.731445
108.211914	11169.544922
106.891602	11118.151367
105.571289	10905.839844
104.250000	10612.210938
102.929688	10297.875977
101.608398	10015.830078
100.287109	9550.376953
98.964844	8894.057617
