#Wave		#Intensity
3199.122070	3802.220215
3198.353516	3668.865967
3197.584961	3856.875244
3196.815430	3836.728516
3196.046875	3715.809814
3195.277344	3799.705322
3194.508789	3799.076660
3193.739258	3756.207275
3192.969727	3697.107910
3192.200195	3793.943359
3191.429688	3783.572754
3190.660156	3805.676758
3189.889648	3730.374756
3189.120117	3885.569824
3188.349609	3849.226074
3187.579102	3751.238525
3186.808594	3792.796143
3186.038086	3753.241211
3185.267578	3791.541016
3184.496094	3800.642334
3183.725586	3744.893555
3182.954102	3773.449951
3182.182617	3772.825439
3181.411133	3837.015625
3180.639648	3878.502930
3179.868164	3819.547363
3179.096680	3899.893066
3178.324219	3734.080078
3177.552734	3756.128174
3176.780273	3923.856689
3176.007813	3822.861084
3175.235352	3780.154785
3174.462891	3763.349365
3173.690430	3798.315430
3172.916992	3952.958252
3172.144531	3845.572021
3171.371094	3773.792725
3170.597656	3857.231689
3169.824219	3885.687256
3169.050781	3749.293457
3168.277344	3764.830811
3167.503906	3867.601807
3166.729492	3850.808594
3165.956055	3804.950684
3165.181641	3952.876465
3164.407227	3858.582520
3163.632813	3796.603760
3162.858398	3789.519287
3162.083984	3840.529053
3161.309570	3897.975342
3160.534180	3952.176025
3159.759766	3851.523682
3158.984375	3921.840088
3158.208984	3859.921875
3157.433594	3791.575684
3156.658203	3800.618408
3155.881836	3845.111572
3155.106445	3757.466309
3154.331055	3756.843750
3153.554688	3717.563721
3152.778320	3842.563721
3152.001953	3899.894287
3151.225586	4018.382568
3150.449219	3946.891602
3149.672852	3865.767822
3148.895508	3935.928955
3148.118164	3925.623291
3147.341797	3944.275879
3146.564453	3824.605957
3145.787109	3721.056152
3145.009766	3726.870361
3144.232422	3848.425049
3143.454102	3722.420654
3142.676758	3869.647217
3141.898438	3824.017334
3141.120117	3768.763672
3140.341797	3842.023926
3139.563477	3860.658203
3138.785156	3872.863281
3138.006836	3743.789307
3137.227539	3711.066162
3136.449219	3720.079834
3135.669922	3693.789551
3134.890625	3689.968262
3134.111328	3840.138916
3133.332031	3768.934814
3132.552734	3816.415771
3131.773438	3883.120361
3130.993164	3882.476318
3130.212891	3888.243408
3129.433594	3922.852783
3128.653320	3906.180176
3127.873047	3825.435303
3127.092773	3776.750488
3126.311523	3782.529541
3125.531250	3807.520508
3124.750000	3835.704590
3123.969727	3879.885498
3123.188477	3844.034180
3122.407227	3788.993652
3121.625977	3855.557373
3120.843750	3794.134766
3120.062500	3835.086670
3119.281250	3917.599365
3118.499023	3884.974365
3117.716797	3798.011230
3116.934570	3915.649658
3116.152344	3771.183350
3115.370117	3729.017578
3114.587891	3856.193115
3113.804688	3868.330322
3113.022461	3736.742676
3112.239258	3854.273438
3111.456055	3863.211914
3110.672852	3801.918701
3109.889648	3747.029053
3109.106445	3784.700928
3108.323242	3873.409912
3107.539063	3847.246338
3106.755859	3872.124023
3105.971680	3801.322510
3105.187500	3854.895996
3104.403320	3828.752197
3103.619141	3783.492432
3102.834961	3728.686768
3102.049805	3861.895508
3101.265625	3893.112793
3100.480469	3927.504883
3099.695313	3968.255127
3098.910156	3614.142578
3098.125000	3887.343750
3097.339844	3759.369873
3096.553711	3742.832031
3095.768555	3799.489258
3094.982422	3782.949951
3094.197266	4011.360596
3093.411133	3889.832764
3092.625000	3790.605469
3091.838867	3853.565918
3091.051758	3811.599121
3090.265625	3861.821045
3089.478516	3810.332764
3088.692383	3924.085938
3087.905273	3815.420410
3087.118164	3725.849121
3086.331055	3852.262451
3085.542969	3794.467285
3084.755859	3958.924316
3083.968750	3866.213623
3083.180664	3833.834229
3082.392578	3861.755615
3081.604492	3911.876221
3080.816406	3812.890381
3080.028320	3904.232910
3079.240234	3795.767822
3078.451172	3696.850098
3077.663086	3740.615967
3076.874023	3879.451660
3076.084961	3885.144531
3075.295898	3935.193848
3074.506836	3785.647949
3073.717773	3867.370605
3072.928711	3907.896729
3072.138672	3758.429688
3071.348633	3767.302246
3070.559570	3757.179932
3069.769531	3775.543701
3068.979492	3844.528809
3068.189453	3897.672363
3067.398438	3723.050049
3066.608398	3709.780273
3065.817383	3939.998047
3065.026367	3835.010254
3064.236328	3821.728271
3063.445313	3950.674805
3062.654297	3823.617188
3061.862305	3854.576172
3061.071289	3692.827881
3060.279297	3777.491455
3059.488281	3672.651855
3058.696289	3814.123535
3057.904297	3756.665527
3057.112305	3882.293945
3056.320313	3793.285400
3055.527344	3710.616943
3054.735352	3820.416260
3053.942383	3791.392334
3053.150391	3724.533691
3052.357422	4023.466797
3051.564453	3887.232666
3050.770508	3782.565430
3049.977539	3803.997314
3049.184570	3882.141357
3048.390625	3790.128906
3047.597656	3732.797607
3046.803711	3883.353027
3046.009766	3923.643555
3045.215820	3812.794189
3044.420898	3994.740234
3043.626953	3795.787842
3042.833008	3892.709961
3042.038086	3926.671875
3041.243164	3806.476074
3040.448242	3786.970459
3039.653320	3858.670410
3038.858398	3795.142578
3038.063477	3781.935547
3037.267578	3828.454346
3036.472656	3887.528320
3035.676758	3861.743652
3034.880859	3788.842285
3034.084961	3920.139160
3033.289063	3859.814697
3032.493164	3783.809814
3031.696289	3682.713379
3030.900391	3697.795410
3030.103516	3744.257324
3029.306641	3727.943848
3028.509766	3793.209961
3027.712891	3823.947510
3026.916016	3691.580566
3026.119141	3832.081543
3025.321289	3850.255371
3024.524414	3790.051758
3023.726563	3754.942383
3022.928711	3842.063965
3022.130859	3753.691406
3021.333008	3843.916504
3020.534180	3943.508301
3019.736328	3886.479980
3018.937500	3945.325439
3018.139648	3891.446289
3017.340820	3878.277100
3016.541992	3902.667969
3015.743164	3811.272949
3014.944336	3885.724365
3014.144531	3985.175293
3013.345703	3799.985107
3012.545898	3896.290039
3011.746094	3923.779297
3010.946289	3869.983154
3010.146484	3934.973145
3009.346680	3803.069092
3008.546875	3796.186279
3007.746094	3826.792480
3006.945313	3882.375732
3006.145508	3928.571533
3005.344727	3824.878906
3004.543945	3905.408691
3003.743164	3845.452637
3002.941406	3891.623291
3002.140625	3875.373047
3001.338867	3874.726807
3000.538086	3802.338623
2999.736328	3729.974121
2998.934570	3857.197754
2998.132813	3862.789795
2997.330078	3902.668457
2996.528320	3873.968018
2995.725586	3792.302979
2994.923828	3844.635498
2994.121094	3859.569580
2993.318359	3858.925781
2992.515625	3895.650391
2991.712891	3851.411377
2990.909180	3838.316895
2990.106445	3847.013916
2989.302734	3868.155762
2988.499023	3911.070313
2987.695313	3953.970703
2986.891602	3894.213379
2986.087891	3999.299316
2985.284180	3924.007324
2984.479492	3985.529297
2983.675781	3891.614746
2982.871094	3875.426270
2982.066406	3812.633789
2981.261719	3920.734131
2980.457031	3854.848633
2979.652344	3910.108398
2978.846680	3741.774414
2978.041992	3856.023438
2977.236328	4010.588379
2976.430664	3935.431152
2975.625000	4049.590088
2974.819336	3878.270264
2974.013672	3821.784912
2973.208008	3892.483154
2972.401367	3795.700439
2971.594727	3776.463379
2970.789063	3831.633301
2969.982422	3809.296875
2969.175781	3777.670898
2968.368164	3919.569824
2967.561523	3838.368408
2966.754883	3732.414551
2965.947266	3858.764893
2965.139648	3873.602539
2964.332031	3764.599609
2963.524414	3856.831787
2962.716797	3815.954590
2961.909180	3840.071777
2961.100586	3907.494385
2960.292969	3789.296143
2959.484375	3705.157959
2958.675781	3985.935547
2957.867188	3815.223145
2957.058594	3851.680664
2956.250000	3962.302979
2955.440430	3800.950439
2954.631836	3936.261475
2953.822266	3938.692871
2953.012695	3811.399902
2952.203125	4026.932617
2951.393555	3816.301514
2950.583984	3794.053955
2949.773438	3824.285645
2948.963867	3990.294678
2948.153320	3826.093018
2947.342773	3732.902344
2946.532227	3803.222412
2945.721680	3851.930908
2944.911133	3854.370605
2944.100586	3869.141113
2943.289063	3806.844971
2942.478516	3951.060303
2941.666992	3910.341064
2940.855469	3808.016846
2940.043945	3822.782227
2939.232422	3846.782227
2938.419922	3855.376953
2937.608398	3830.101563
2936.795898	3878.714600
2935.983398	3844.209717
2935.171875	3874.340088
2934.358398	3953.688965
2933.545898	3845.357666
2932.733398	3786.274902
2931.920898	3837.920898
2931.107422	3754.260986
2930.293945	3901.196045
2929.480469	3823.700684
2928.666992	3804.621826
2927.853516	4055.945557
2927.040039	3877.081055
2926.226563	3836.500977
2925.412109	3866.570557
2924.597656	3758.451416
2923.783203	3840.715820
2922.968750	3944.439697
2922.154297	3894.674316
2921.339844	3795.828125
2920.525391	3733.831543
2919.709961	3874.313965
2918.894531	3726.447998
2918.080078	3762.622559
2917.264648	3722.134766
2916.449219	3914.637939
2915.632813	3950.762695
2914.817383	3799.942383
2914.000977	3967.823730
2913.185547	3893.636963
2912.369141	3856.229980
2911.552734	3861.709229
2910.736328	3735.524658
2909.919922	3799.188477
2909.102539	3881.196289
2908.286133	3767.312744
2907.468750	3745.262939
2906.651367	3925.137207
2905.833984	3716.479492
2905.016602	3841.248047
2904.199219	3984.321777
2903.381836	3824.675293
2902.563477	3796.523682
2901.746094	3951.757568
2900.927734	3822.753906
2900.109375	3867.942383
2899.291016	3842.856689
2898.472656	3921.622803
2897.654297	3881.267578
2896.834961	3926.415283
2896.015625	3742.596436
2895.197266	3928.152100
2894.377930	3973.269043
2893.558594	3832.250244
2892.739258	3895.671631
2891.918945	3904.169434
2891.099609	3988.904541
2890.279297	3991.285400
2889.459961	3929.644531
2888.639648	3868.024170
2887.819336	3739.377686
2886.999023	3903.292725
2886.177734	3902.638428
2885.357422	3789.280762
2884.536133	3880.011719
2883.715820	3851.956055
2882.894531	3799.553711
2882.073242	3951.116943
2881.251953	4029.585449
2880.429688	3806.772217
2879.608398	3845.686279
2878.786133	3875.461182
2877.964844	3972.137939
2877.142578	3901.530273
2876.320313	3894.795166
2875.498047	3894.142090
2874.674805	3933.001465
2873.852539	3844.213867
2873.029297	3873.953125
2872.207031	3733.560791
2871.383789	4003.260986
2870.560547	3887.188721
2869.737305	3825.809570
2868.913086	3800.881348
2868.089844	3885.233154
2867.266602	3924.034180
2866.442383	3941.582031
2865.618164	3943.954590
2864.793945	3882.626953
2863.969727	3966.893799
2863.145508	3954.099121
2862.320313	3998.912354
2861.496094	3852.740723
2860.670898	3897.555664
2859.845703	3830.236084
2859.020508	3899.277588
2858.195313	3907.710938
2857.370117	3867.681641
2856.544922	3742.875732
2855.718750	3866.383789
2854.892578	3832.435547
2854.067383	3949.833496
2853.241211	3849.306396
2852.415039	3860.762939
2851.587891	3902.467285
2850.761719	3753.603760
2849.934570	3895.108887
2849.108398	3885.384033
2848.281250	4002.634277
2847.454102	3911.283447
2846.626953	3971.069092
2845.799805	3912.991699
2844.971680	3993.904541
2844.144531	3908.657227
2843.316406	4013.704102
2842.488281	3819.776611
2841.660156	3837.249756
2840.832031	3869.809570
2840.003906	3863.123535
2839.175781	3838.334229
2838.346680	3925.184082
2837.518555	3852.127930
2836.689453	3851.480713
2835.860352	3920.191162
2835.031250	3844.156982
2834.202148	3759.104736
2833.372070	3779.571289
2832.542969	3881.395508
2831.712891	3889.782471
2830.882813	3985.528809
2830.052734	3918.595459
2829.222656	3975.155029
2828.392578	3851.037109
2827.562500	3919.630859
2826.731445	4096.560059
2825.901367	3942.389404
2825.070313	3941.726807
2824.239258	3901.954590
2823.408203	3799.028809
2822.576172	3852.524170
2821.745117	3890.966553
2820.914063	3809.139160
2820.082031	3754.392334
2819.250000	3789.826172
2818.417969	3705.051758
2817.585938	3854.649170
2816.753906	3724.833496
2815.921875	3997.515869
2815.088867	3831.685059
2814.255859	3909.102783
2813.423828	3839.402344
2812.590820	3958.811523
2811.757813	3835.110352
2810.923828	3879.470947
2810.090820	3824.821045
2809.256836	3878.166260
2808.423828	3877.513916
2807.589844	3921.836914
2806.755859	3876.209717
2805.921875	3839.589600
2805.087891	3868.912109
2804.252930	3907.213623
2803.418945	3921.535645
2802.583984	3935.852539
2801.749023	3896.257813
2800.914063	3943.511230
2800.079102	3939.854004
2799.244141	4011.030518
2798.409180	3887.650635
2797.573242	3863.058105
2796.737305	3778.637939
2795.902344	3852.784424
2795.066406	3777.366211
2794.230469	3830.555664
2793.393555	3898.676025
2792.557617	3915.955566
2791.720703	3948.173096
2790.884766	3860.848633
2790.047852	3755.626709
2789.210938	3898.383545
2788.374023	3823.058105
2787.537109	3953.810059
2786.699219	3881.486328
2785.862305	3845.009766
2785.024414	3975.691650
2784.186523	3915.337158
2783.348633	3774.441650
2782.510742	3881.203125
2781.672852	3895.463379
2780.833984	3802.357910
2779.996094	3950.804443
2779.157227	3884.552002
2778.318359	3803.417969
2777.479492	3844.500732
2776.640625	3727.643555
2775.801758	3965.354248
2774.961914	3905.111572
2774.123047	3791.281250
2773.283203	3847.219482
2772.443359	3891.229736
2771.603516	3902.481201
2770.763672	3979.205322
2769.923828	3835.700439
2769.083008	3793.401123
2768.243164	3807.635742
2767.402344	3661.257568
2766.561523	3839.063477
2765.720703	3826.523682
2764.879883	3736.697510
2764.039063	3744.984619
2763.197266	3898.882324
2762.355469	3907.138916
2761.514648	3847.066162
2760.672852	3757.311523
2759.831055	3738.860107
2758.989258	3862.936523
2758.146484	3903.847168
2757.304688	3962.553223
2756.461914	3837.241699
2755.619141	3756.480225
2754.777344	3844.848145
2753.933594	3847.166016
2753.090820	3938.454102
2752.248047	3804.355957
2751.404297	3898.584961
2750.561523	3891.999268
2749.717773	3959.508057
2748.874023	3798.827393
2748.030273	3961.135498
2747.186523	3868.639160
2746.341797	3841.331299
2745.498047	3754.808350
2744.653320	3875.563965
2743.808594	3848.268555
2742.963867	3912.732910
2742.119141	3944.624268
2741.274414	3858.156250
2740.429688	3768.759033
2739.583984	3868.685303
2738.739258	3876.904297
2737.893555	3828.942871
2737.047852	3816.471924
2736.202148	3863.119385
2735.355469	4010.228271
2734.509766	3820.449707
2733.663086	3970.470215
2732.817383	3777.808350
2731.970703	3963.223633
2731.124023	3873.973145
2730.277344	3896.937012
2729.429688	3784.113770
2728.583008	3919.231445
2727.735352	3844.801758
2726.888672	3882.505615
2726.041016	3881.850342
2725.193359	3839.905762
2724.345703	3845.154785
2723.497070	3897.573975
2722.649414	3849.751953
2721.800781	3966.991943
2720.952148	3851.398926
2720.104492	3785.931152
2719.255859	3838.315186
2718.406250	4049.725342
2717.557617	3854.687500
2716.708008	3851.092285
2715.859375	3876.935791
2715.009766	3888.053955
2714.160156	3934.481689
2713.310547	3886.740723
2712.460938	3894.909424
2711.610352	3773.659180
2710.760742	3861.245117
2709.910156	3998.786133
2709.059570	3945.194336
2708.209961	3829.895508
2707.358398	3858.636230
2706.507813	3852.107666
2705.657227	3801.514160
2704.805664	3844.931396
2703.955078	3809.040039
2703.103516	3843.632080
2702.251953	3945.736084
2701.400391	3889.298096
2700.547852	3988.424805
2699.696289	3961.341797
2698.843750	3901.995605
2697.992188	3936.536133
2697.139648	3821.489990
2696.287109	3885.355469
2695.433594	3937.471924
2694.581055	3860.591064
2693.728516	3868.730957
2692.875000	3958.917969
2692.021484	3829.334717
2691.167969	3860.910156
2690.314453	3971.554688
2689.460938	3935.742432
2688.607422	3967.283691
2687.752930	3949.048340
2686.899414	4018.625977
2686.044922	3886.258545
2685.190430	3891.452881
2684.335938	3899.571045
2683.481445	3928.160645
2682.625977	3945.042725
2681.771484	3926.831787
2680.916016	3899.856689
2680.060547	3948.886719
2679.205078	3886.847412
2678.349609	3859.892334
2677.494141	3806.653076
2676.637695	3922.847412
2675.782227	3895.899414
2674.925781	3871.880371
2674.069336	3906.259033
2673.212891	3955.220703
2672.356445	3887.426025
2671.500000	3790.474365
2670.642578	3900.697754
2669.786133	3815.444336
2668.928711	3887.711426
2668.071289	3822.900879
2667.213867	3921.381836
2666.356445	3961.528320
2665.498047	3882.165283
2664.640625	3805.742920
2663.782227	3845.888184
2662.923828	3856.889404
2662.065430	3821.285645
2661.207031	3814.814453
2660.348633	3959.747314
2659.490234	3892.121826
2658.630859	3911.836914
2657.771484	3791.860352
2656.913086	3840.681641
2656.053711	3904.031738
2655.193359	3848.106689
2654.333984	3800.924805
2653.474609	3800.281006
2652.614258	3811.265869
2651.753906	3845.500000
2650.893555	3929.127197
2650.033203	3835.480225
2649.172852	3855.166748
2648.312500	3822.562012
2647.451172	3897.423340
2646.590820	3946.125977
2645.729492	3826.425781
2644.868164	3764.820313
2644.006836	3740.964600
2643.145508	3751.937744
2642.283203	3870.252686
2641.421875	3936.313965
2640.559570	3744.229980
2639.697266	3801.590576
2638.834961	3873.427979
2637.972656	3922.050781
2637.110352	3848.928711
2636.248047	3865.663086
2635.384766	3870.802246
2634.521484	3896.217285
2633.658203	3883.971436
2632.794922	3805.125488
2631.931641	3891.340576
2631.068359	3806.730225
2630.204102	3918.964844
2629.340820	3817.014648
2628.476563	3848.194580
2627.612305	3945.900146
2626.748047	3789.041504
2625.883789	3860.696533
2625.018555	3906.304443
2624.154297	3911.423828
2623.289063	3873.184570
2622.423828	3924.546631
2621.558594	3796.744873
2620.693359	3793.211914
2619.828125	3908.107422
2618.961914	3812.140869
2618.096680	3872.131592
2617.230469	3880.135498
2616.364258	3859.271484
2615.498047	3884.591064
2614.631836	3976.269043
2613.765625	3822.686768
2612.898438	3859.537354
2612.032227	3786.780518
2611.165039	3817.857178
2610.297852	3713.417969
2609.430664	3839.622070
2608.563477	3862.027344
2607.695313	3898.832764
2606.828125	3837.667236
2605.959961	3822.612549
2605.091797	3827.723877
2604.223633	3818.435059
2603.355469	3912.799561
2602.487305	3863.197510
2601.618164	3876.932617
2600.750000	3818.720215
2599.880859	3754.772949
2599.011719	3762.765381
2598.142578	3822.527588
2597.273438	3859.263184
2596.403320	3812.603516
2595.534180	3814.830811
2594.664063	3851.548584
2593.793945	3891.127686
2592.923828	3904.833252
2592.053711	3849.586182
2591.183594	3857.549316
2590.313477	3928.690186
2589.442383	3801.682861
2588.571289	3855.583496
2587.700195	3854.928467
2586.829102	3848.533691
2585.958008	3753.189209
2585.086914	3835.750244
2584.215820	3837.966797
2583.343750	3762.748047
2582.471680	3845.264893
2581.599609	3818.808594
2580.727539	3775.162354
2579.855469	3932.150635
2578.982422	3994.523438
2578.110352	3939.408936
2577.237305	4001.759277
2576.364258	3920.885498
2575.491211	3805.676270
2574.618164	3916.689453
2573.745117	3953.237061
2572.872070	4018.393311
2571.998047	3857.459717
2571.124023	3868.248291
2570.250000	3919.082031
2569.375977	3786.848389
2568.501953	3811.941406
2567.627930	3848.462646
2566.752930	3844.949219
2565.878906	4041.511963
2565.003906	3829.352783
2564.128906	3914.418701
2563.253906	3810.909668
2562.377930	3907.374512
2561.502930	3918.133057
2560.626953	3854.649902
2559.751953	3879.687500
2558.875977	3901.862061
2558.000000	3909.759521
2557.123047	3966.161377
2556.247070	3859.930420
2555.371094	3973.368896
2554.494141	3921.358643
2553.617188	3974.868164
2552.740234	3894.365723
2551.863281	3953.562256
2550.986328	3932.939697
2550.108398	3869.581787
2549.231445	3928.751953
2548.353516	3948.022705
2547.475586	3830.582031
2546.597656	3841.320068
2545.719727	3983.018311
2544.841797	3888.403809
2543.962891	3961.739746
2543.084961	3841.550293
2542.206055	3926.249512
2541.327148	3848.776123
2540.448242	3799.770264
2539.569336	3981.117188
2538.689453	3875.241943
2537.810547	3954.177002
2536.930664	3831.288818
2536.050781	3827.794678
2535.170898	3903.855957
2534.291016	3869.102051
2533.411133	3905.366455
2532.530273	3833.706543
2531.649414	3915.393311
2530.769531	3892.015625
2529.888672	3888.514160
2529.007813	3930.419434
2528.125977	3909.888184
2527.245117	3889.363770
2526.363281	3778.081543
2525.482422	3805.796875
2524.600586	3915.730225
2523.718750	3798.830078
2522.836914	3852.037354
2521.954102	3882.554688
2521.072266	3941.396484
2520.189453	3816.072021
2519.306641	3806.923828
2518.423828	3817.603027
2517.541016	3822.615479
2516.658203	3861.598877
2515.775391	3849.618164
2514.891602	3840.471436
2514.007813	3919.046631
2513.125000	3762.774902
2512.241211	3965.797607
2511.356445	3874.619385
2510.472656	3743.884033
2509.588867	3799.790039
2508.704102	3915.038574
2507.819336	3891.760742
2506.934570	3763.937012
2506.049805	3763.294922
2505.165039	3892.594482
2504.279297	3824.146484
2503.394531	3803.727295
2502.508789	3882.132568
2501.623047	3819.366943
2500.737305	3937.256348
2499.851563	3863.214600
2498.965820	3856.912598
2498.079102	3757.520752
2497.193359	3833.032471
2496.306641	3874.678467
2495.419922	3778.153564
2494.533203	3839.527588
2493.646484	3867.057861
2492.758789	3821.308838
2491.872070	3784.027832
2490.984375	3867.895264
2490.096680	3805.269287
2489.208984	3717.318848
2488.321289	4001.067139
2487.432617	3828.657471
2486.544922	3757.635986
2485.656250	3804.836426
2484.767578	3911.109131
2483.878906	3828.856689
2482.990234	3786.010986
2482.101563	3729.118408
2481.211914	3829.707275
2480.323242	3778.449219
2479.433594	3828.399414
2478.543945	3847.418213
2477.654297	3815.852295
2476.764648	3860.151367
2475.875000	3971.849854
2474.984375	3813.897217
2474.093750	3942.413086
2473.204102	3837.861816
2472.313477	3834.399170
2471.421875	3926.360107
2470.531250	3886.404297
2469.640625	3863.295654
2468.749023	3761.651611
2467.857422	3870.389404
2466.965820	3858.511230
2466.074219	3981.213379
2465.182617	3890.831055
2464.291016	3772.451904
2463.398438	3903.512207
2462.505859	3849.611816
2461.613281	3921.786865
2460.720703	3848.295898
2459.828125	3959.650635
2458.935547	3894.577393
2458.041992	4025.481689
2457.149414	3876.452637
2456.255859	3870.193115
2455.362305	3841.552246
2454.468750	3801.730957
2453.575195	3949.320313
2452.680664	3828.395752
2451.787109	3961.949707
2450.892578	3855.041992
2449.998047	3840.407227
2449.103516	3954.328125
2448.208984	3811.152832
2447.313477	3860.786133
2446.418945	3921.574951
2445.523438	3906.940674
2444.627930	3970.492676
2443.732422	3816.269287
2442.836914	3879.814697
2441.941406	3929.384521
2441.044922	3864.535889
2440.149414	3886.193115
2439.252930	3991.522461
2438.356445	3898.807373
2437.459961	3900.928711
2436.563477	3877.958008
2435.666016	3952.554443
2434.769531	3845.974365
2433.872070	3909.404785
2432.974609	3727.646484
2432.077148	3891.353516
2431.179688	4024.368652
2430.281250	3834.330322
2429.383789	3855.946289
2428.485352	3891.473145
2427.586914	3868.541748
2426.688477	3865.096924
2425.790039	3933.989258
2424.891602	3855.428223
2423.992188	3874.236572
2423.093750	3837.423584
2422.194336	3984.120361
2421.294922	3869.466797
2420.395508	3815.997070
2419.496094	3918.160400
2418.595703	3778.571289
2417.696289	3825.148193
2416.795898	3924.479492
2415.895508	3937.691895
2414.995117	3781.535645
2414.094727	3958.550781
2413.194336	3916.239990
2412.292969	3857.293213
2411.391602	3848.308838
2410.491211	3819.908447
2409.589844	3935.745361
2408.687500	3921.205322
2407.786133	3876.170898
2406.884766	4003.026855
2405.982422	4024.514404
2405.080078	3915.746582
2404.177734	3976.031982
2403.275391	3864.539307
2402.373047	3861.107178
2401.470703	3954.602295
2400.567383	3876.396484
2399.664063	3828.669434
2398.760742	3847.388428
2397.857422	3830.124268
2396.954102	3918.010010
2396.050781	3859.242188
2395.146484	3877.942383
2394.243164	3929.822510
2393.338867	3876.612549
2392.434570	3972.708008
2391.530273	3847.641846
2390.625000	3974.109131
2389.720703	3896.058838
2388.815430	3837.374268
2387.910156	3858.813721
2387.004883	3869.198730
2386.099609	3835.399658
2385.194336	3867.871094
2384.289063	4013.504395
2383.382813	3888.622803
2382.476563	3901.752441
2381.570313	3895.565186
2380.664063	3790.076416
2379.757813	3850.101074
2378.851563	3945.952148
2377.944336	3881.863770
2377.037109	3950.110840
2376.130859	3797.849609
2375.223633	3838.531494
2374.315430	3870.934082
2373.408203	3809.667480
2372.500977	3891.638428
2371.592773	3871.694580
2370.684570	3851.757324
2369.776367	3853.848633
2368.868164	3822.911865
2367.959961	3778.226563
2367.050781	3851.863770
2366.142578	3809.939453
2365.233398	3850.541016
2364.324219	3830.630371
2363.415039	3860.216309
2362.504883	3859.553467
2361.595703	3889.124023
2360.685547	3849.983643
2359.776367	3860.312500
2358.866211	3694.824463
2357.956055	3793.067627
2357.045898	3847.338867
2356.134766	3879.625732
2355.224609	3741.699463
2354.313477	3924.953125
2353.402344	3905.068848
2352.491211	3887.935059
2351.580078	3846.117432
2350.668945	3894.827637
2349.756836	3932.551270
2348.844727	3868.812012
2347.933594	3807.835693
2347.021484	3815.404053
2346.108398	3776.381592
2345.196289	3931.912842
2344.284180	3865.488037
2343.371094	3892.214111
2342.458008	3771.046875
2341.544922	3784.089111
2340.631836	3829.978516
2339.718750	3752.678955
2338.805664	3891.605957
2337.891602	3852.629395
2336.977539	3920.361328
2336.063477	3936.098877
2335.149414	3809.619629
2334.235352	3817.167480
2333.321289	3912.197266
2332.406250	3862.322754
2331.491211	3883.521973
2330.576172	3934.770996
2329.661133	3775.637695
2328.746094	3870.592041
2327.831055	3845.346436
2326.915039	3861.068359
2326.000000	3991.450439
2325.083984	3903.414551
2324.167969	3962.784912
2323.251953	3945.730713
2322.334961	3855.019531
2321.418945	3867.994873
2320.501953	3927.330078
2319.584961	3844.848877
2318.667969	3912.346436
2317.750977	3816.266357
2316.833984	3826.511230
2315.916016	3926.676270
2314.999023	3868.785889
2314.081055	3819.087402
2313.163086	3747.617188
2312.245117	3880.403564
2311.327148	3909.684082
2310.408203	3889.955811
2309.490234	3919.224609
2308.571289	3847.798096
2307.652344	3814.486572
2306.733398	3827.430908
2305.814453	3911.085938
2304.894531	3831.551270
2303.975586	3964.116211
2303.055664	3928.093994
2302.135742	3984.494141
2301.215820	3818.042236
2300.295898	3871.724365
2299.375000	3938.970703
2298.455078	3965.452637
2297.534180	3877.870361
2296.613281	3972.231689
2295.692383	3841.243408
2294.771484	3894.865479
2293.850586	3788.358887
2292.928711	4002.053467
2292.007813	4012.214844
2291.085938	3938.290527
2290.164063	3810.154785
2289.242188	3817.632080
2288.319336	3868.481445
2287.397461	3797.343018
2286.474609	3859.017822
2285.551758	3966.733398
2284.628906	3882.068848
2283.706055	3865.147949
2282.783203	3948.433105
2281.859375	3871.938232
2280.936523	3838.784424
2280.012695	3946.391113
2279.088867	3997.129150
2278.165039	3869.268066
2277.241211	3979.518555
2276.316406	4016.700195
2275.391602	4059.277344
2274.467773	3966.644043
2273.542969	3828.083984
2272.618164	3878.780273
2271.692383	3859.193604
2270.767578	3888.250244
2269.841797	3863.265137
2268.916992	3932.827637
2267.991211	3924.047119
2267.065430	4015.176270
2266.138672	4009.083984
2265.212891	4027.286865
2264.286133	3913.242676
2263.360352	3985.422119
2262.433594	3938.870605
2261.506836	3857.269043
2260.579102	3821.543213
2259.652344	3955.706543
2258.725586	3979.287598
2257.797852	3921.994629
2256.870117	3932.097656
2255.942383	4004.173096
2255.014648	3903.798828
2254.085938	3862.719727
2253.158203	3977.860352
2252.229492	3909.854980
2251.300781	3938.794922
2250.372070	3938.114746
2249.443359	3854.002930
2248.514648	3985.190186
2247.584961	3852.671631
2246.655273	3886.975586
2245.725586	3872.856689
2244.795898	3942.102295
2243.866211	3970.995361
2242.936523	3892.354736
2242.005859	3862.118164
2241.076172	3958.188721
2240.145508	3868.843994
2239.214844	3932.645020
2238.284180	3899.736084
2237.352539	3869.523926
2236.421875	3890.333984
2235.490234	3967.508545
2234.558594	3800.420166
2233.626953	3936.619141
2232.695313	3978.866455
2231.763672	3956.718506
2230.831055	3972.126953
2229.899414	3947.305908
2228.966797	4027.057373
2228.034180	4026.361328
2227.101563	4020.304688
2226.167969	3936.537598
2225.235352	4005.518066
2224.301758	3924.461182
2223.369141	3950.565918
2222.435547	3931.137451
2221.500977	3901.006104
2220.567383	3919.070068
2219.633789	3929.098145
2218.699219	4048.840088
2217.764648	3882.254395
2216.830078	3844.131348
2215.895508	3907.657715
2214.960938	3885.588135
2214.025391	3922.348145
2213.090820	3961.768311
2212.155273	3755.277588
2211.219727	3912.295410
2210.284180	3922.305908
2209.347656	3814.770752
2208.412109	3832.807373
2207.475586	3914.928955
2206.540039	3871.531006
2205.603516	3860.182861
2204.666992	4033.005859
2203.729492	3816.148438
2202.792969	3828.828613
2201.855469	3913.532471
2200.917969	3840.839355
2199.980469	3778.838135
2199.042969	4010.154297
2198.105469	3932.149902
2197.167969	3899.484375
2196.229492	3933.453369
2195.291016	3930.107666
2194.352539	3820.202148
2193.414063	3912.765137
2192.475586	3781.595703
2191.536133	3855.494629
2190.597656	3921.381104
2189.658203	3795.601318
2188.718750	3999.860107
2187.779297	4031.096680
2186.839844	3945.267822
2185.899414	3875.427734
2184.958984	3816.249512
2184.019531	3916.628174
2183.079102	3881.389160
2182.138672	3856.794434
2181.197266	3991.661865
2180.256836	3940.485107
2179.315430	3849.476318
2178.374023	3816.934814
2177.432617	3922.502197
2176.491211	3977.582764
2175.549805	3889.284912
2174.608398	3824.906494
2173.666016	4036.553955
2172.723633	3900.529785
2171.781250	3881.282715
2170.838867	3917.744873
2169.896484	3917.065430
2168.953125	3934.947266
2168.010742	3971.380859
2167.067383	4029.006592
2166.124023	3893.147705
2165.180664	3966.665283
2164.237305	3942.133789
2163.292969	3938.801025
2162.348633	3916.930908
2161.405273	3847.406006
2160.460938	3973.815918
2159.516602	4010.184570
2158.571289	3967.144287
2157.626953	3900.304443
2156.681641	3910.209961
2155.736328	3891.015625
2154.791016	3959.102295
2153.845703	3852.645996
2152.900391	3981.522461
2151.954102	3925.321777
2151.008789	3884.997803
2150.062500	3905.462646
2149.116211	3997.252686
2148.169922	4094.293457
2147.222656	3937.762451
2146.276367	3926.516846
2145.329102	3981.277344
2144.381836	4033.378906
2143.434570	3932.389648
2142.487305	3934.345703
2141.540039	3928.385986
2140.591797	3993.649170
2139.644531	3861.087891
2138.696289	3947.435059
2137.748047	4065.389160
2136.799805	3982.967773
2135.850586	3987.546875
2134.902344	4039.555664
2133.953125	4030.950195
2133.003906	4082.933105
2132.054688	3929.469482
2131.105469	3976.185059
2130.156250	4025.517090
2129.206055	3998.494629
2128.256836	4189.925781
2127.306641	4110.255371
2126.356445	4017.458252
2125.406250	3950.997803
2124.455078	4102.853027
2123.504883	3944.365479
2122.553711	4006.778809
2121.602539	4021.854492
2120.651367	3992.245117
2119.700195	3986.295654
2118.748047	3975.093506
2117.796875	3971.775635
2116.844727	4081.393066
2115.892578	4036.042725
2114.940430	4011.711914
2113.988281	3992.639404
2113.035156	3965.699463
2112.083008	3951.889404
2111.129883	4008.922363
2110.176758	3905.920898
2109.223633	3957.696289
2108.270508	4054.031982
2107.316406	4008.755859
2106.363281	4044.757813
2105.409180	4057.158691
2104.455078	3949.014404
2103.500977	3995.487305
2102.546875	4081.237061
2101.591797	3954.811035
2100.637695	4092.910156
2099.682617	3971.762207
2098.727539	3981.541992
2097.772461	4190.229492
2096.817383	3904.269043
2095.861328	4097.199219
2094.906250	3999.698242
2093.950195	4014.694580
2092.994141	4076.755371
2092.038086	3942.704834
2091.081055	4041.353271
2090.125000	4019.740967
2089.167969	3953.712158
2088.210938	3994.826904
2087.253906	3994.131592
2086.296875	4045.671875
2085.339844	4021.465576
2084.381836	3997.267334
2083.424805	4043.558838
2082.466797	4048.074707
2081.508789	3995.179199
2080.550781	4080.582764
2079.591797	4032.916992
2078.633789	4058.296143
2077.674805	3888.088379
2076.715820	3923.912598
2075.756836	3899.767822
2074.797852	4013.767334
2073.837891	3953.132813
2072.878906	3866.464600
2071.918945	3964.780273
2070.958984	3951.066650
2069.999023	3942.565918
2069.039063	4098.096191
2068.078125	3930.779297
2067.118164	3906.669678
2066.157227	4017.885986
2065.196289	3959.946045
2064.235352	4078.917969
2063.274414	3950.762939
2062.312500	3999.482666
2061.351563	3975.385498
2060.389648	3979.891357
2059.427734	3973.999268
2058.465820	4038.272217
2057.503906	3970.015381
2056.541016	3951.139160
2055.578125	3976.422852
2054.616211	3962.745361
2053.653320	4039.945068
2052.689453	3992.514160
2051.726563	3965.863037
2050.763672	3895.106201
2049.799805	3956.696045
2048.835938	3948.223633
2047.872070	3890.474609
2046.908203	4014.269287
2045.943359	3935.786621
2044.979492	4010.276367
2044.014648	3900.719238
2043.049805	3949.274902
2042.084961	4067.768799
2041.120117	3877.953613
2040.155273	3978.288086
2039.189453	3881.779297
2038.223633	3904.404053
2037.257813	3958.084717
2036.291992	3923.746826
2035.326172	4003.282959
2034.360352	3927.551758
2033.393555	3981.190430
2032.426758	3933.939697
2031.459961	4049.621338
2030.493164	3945.493652
2029.526367	3980.995605
2028.558594	3972.546631
2027.591797	4000.278809
2026.624023	3978.910400
2025.656250	4089.295654
2024.688477	4062.753418
2023.719727	4020.726074
2022.751953	4066.498047
2021.783203	4019.321533
2020.814453	3997.971436
2019.845703	4056.625488
2018.876953	3963.033203
2017.908203	4026.832031
2016.938477	4023.549316
2015.968750	4058.948730
2014.999023	3988.625488
2014.029297	3946.682861
2013.059570	4036.202148
2012.089844	4017.458008
2011.119141	4019.332275
2010.148438	4080.454834
2009.177734	3925.206055
2008.207031	4076.453369
2007.236328	4101.487793
2006.264648	4087.899414
2005.293945	3997.102051
2004.322266	3919.202881
2003.350586	4039.443604
2002.378906	4056.744385
2001.407227	4061.179199
2000.434570	3955.035645
1999.461914	4183.171387
1998.489258	4084.755371
1997.516602	3963.241699
1996.543945	4034.501465
1995.571289	3943.870361
1994.597656	4125.568848
1993.625000	4119.709961
1992.651367	4134.396973
1991.677734	4069.486328
1990.703125	4061.073242
1989.729492	4096.294922
1988.754883	4018.593750
1987.781250	3971.708008
1986.806641	4073.623047
1985.831055	4019.049316
1984.856445	3997.831055
1983.881836	4115.071289
1982.906250	4132.294922
1981.930664	3944.472168
1980.955078	4000.157959
1979.979492	4053.262207
1979.003906	4011.565918
1978.027344	4120.996094
1977.050781	4209.901367
1976.075195	4109.312012
1975.098633	4059.954834
1974.121094	4043.887207
1973.144531	4061.092041
1972.166992	4093.641602
1971.190430	4087.808594
1970.212891	4076.862061
1969.235352	4104.277344
1968.256836	4080.547607
1967.279297	4021.038330
1966.300781	4015.222168
1965.322266	4101.402344
1964.343750	4085.354004
1963.365234	4089.747314
1962.386719	4017.517334
1961.407227	3955.526855
1960.428711	4031.428467
1959.449219	4033.274658
1958.469727	4050.433838
1957.490234	4187.521484
1956.509766	4064.322266
1955.530273	4096.771973
1954.549805	4124.108887
1953.569336	4087.685791
1952.588867	4051.275146
1951.608398	4129.587891
1950.626953	4095.731201
1949.646484	4089.916504
1948.665039	4099.390625
1947.683594	4167.450195
1946.702148	4085.218750
1945.719727	4064.130859
1944.738281	3946.302002
1943.755859	4090.706543
1942.773438	4087.444092
1941.791016	4099.450684
1940.808594	4101.275879
1939.826172	4161.606934
1938.842773	4036.253906
1937.859375	4076.231934
1936.876953	4184.841309
1935.892578	4082.427734
1934.909180	4104.585449
1933.925781	4091.159668
1932.941406	4009.141113
1931.957031	4000.816895
1930.972656	4048.370117
1929.988281	4085.749268
1929.003906	4128.192871
1928.018555	4051.315918
1927.034180	4040.452881
1926.048828	4090.494141
1925.063477	4026.349121
1924.078125	4099.204590
1923.091797	4113.702148
1922.106445	4069.872314
1921.120117	4165.499023
1920.133789	4139.419434
1919.147461	4131.089355
1918.161133	4056.878906
1917.173828	4106.836914
1916.187500	4073.185547
1915.200195	4029.415527
1914.212891	4069.222656
1913.225586	4073.571533
1912.237305	4009.573486
1911.250000	4034.177734
1910.261719	4101.790039
1909.273438	4194.678223
1908.285156	3968.813965
1907.296875	3945.354980
1906.307617	3987.648438
1905.319336	3938.912354
1904.330078	4145.495117
1903.340820	4111.911621
1902.351563	4063.178711
1901.362305	4042.253418
1900.372070	3958.186035
1899.382813	4078.715332
1898.392578	4024.971680
1897.402344	3986.394775
1896.412109	4056.371094
1895.420898	4222.225098
1894.430664	4090.271240
1893.439453	3996.206299
1892.448242	4053.519287
1891.457031	4050.284424
1890.465820	4047.050781
1889.473633	4127.013672
1888.482422	3992.694092
1887.490234	3986.951416
1886.498047	3945.934082
1885.505859	4141.746094
1884.512695	4088.121582
1883.520508	4087.402344
1882.527344	4006.107910
1881.534180	4017.990723
1880.541016	4105.382324
1879.547852	4046.776855
1878.554688	4119.034668
1877.560547	4138.436035
1876.566406	3996.849854
1875.572266	4013.750732
1874.578125	4166.424805
1873.583984	3962.058105
1872.589844	4071.957031
1871.594727	4008.412598
1870.599609	4075.549072
1869.604492	4117.539551
1868.609375	4069.090576
1867.613281	4106.044434
1866.618164	4032.505371
1865.622070	4079.494141
1864.625977	4028.575439
1863.629883	4158.363770
1862.633789	4162.649902
1861.636719	4161.916992
1860.640625	4136.101563
1859.643555	4185.528809
1858.646484	4024.320557
1857.649414	4038.653076
1856.651367	4155.746582
1855.654297	4157.520508
1854.656250	4074.103027
1853.658203	4128.499023
1852.660156	4125.266602
1851.662109	4192.155273
1850.664063	4218.958984
1849.665039	4130.596680
1848.666016	4059.786133
1847.666992	4176.688477
1846.667969	4218.487793
1845.668945	4120.180664
1844.668945	4124.456543
1843.669922	4068.713379
1842.669922	4138.004883
1841.669922	4052.279785
1840.668945	4221.526367
1839.668945	4070.843018
1838.667969	4140.084473
1837.667969	4129.361816
1836.666992	4096.164063
1835.665039	4197.828125
1834.664063	4214.564941
1833.663086	4258.755859
1832.661133	4155.672852
1831.659180	4167.417480
1830.657227	4176.662598
1829.655273	4205.860352
1828.652344	4077.917480
1827.650391	4097.147949
1826.647461	4086.451904
1825.644531	4250.256836
1824.641602	4237.044922
1823.638672	4248.757324
1822.634766	4155.821777
1821.631836	4102.776367
1820.627930	4196.695801
1819.624023	4215.876465
1818.619141	4075.707031
1817.615234	4070.009033
1816.610352	4124.045898
1815.606445	4105.898926
1814.601563	4135.029785
1813.596680	4096.986328
1812.590820	4250.463867
1811.585938	4107.973145
1810.580078	4164.431152
1809.574219	4168.667480
1808.568359	4160.475098
1807.562500	4251.682129
1806.556641	4114.285645
1805.549805	4081.266357
1804.542969	4187.340332
1803.536133	4102.173340
1802.529297	4148.620117
1801.522461	4167.745605
1800.514648	4184.382324
1799.507813	4171.235840
1798.500000	4086.146240
1797.492188	4117.670898
1796.484375	4079.742188
1795.475586	4170.768555
1794.467773	4194.823242
1793.458984	4166.815430
1792.450195	4190.862305
1791.441406	4095.961914
1790.431641	4030.823975
1789.422852	4163.870605
1788.413086	4190.376953
1787.403320	4088.114258
1786.393555	4188.895508
1785.383789	4212.907715
1784.374023	4150.291992
1783.363281	4137.186035
1782.352539	4220.568848
1781.341797	4157.984863
1780.331055	4216.603516
1779.320313	4089.752930
1778.308594	4019.807861
1777.297852	4080.891113
1776.286133	4080.169189
1775.274414	4067.093018
1774.261719	4165.191895
1773.250000	4211.385254
1772.237305	4119.265625
1771.225586	4153.104980
1770.212891	4152.370117
1769.199219	4218.278809
1768.186523	4074.397949
1767.173828	4127.959473
1766.160156	4142.030762
1765.146484	4215.293945
1764.132813	4071.514404
1763.119141	4073.259521
1762.104492	4075.003662
1761.090820	4126.042480
1760.076172	4034.131592
1759.061523	4159.076660
1758.046875	4067.191895
1757.031250	4241.347168
1756.016602	4198.731934
1755.000977	4104.426270
1753.985352	4098.776367
1752.969727	4125.124512
1751.954102	4195.758789
1750.937500	4155.648926
1749.920898	4145.073242
1748.905273	4156.636719
1747.888672	4037.862793
1746.871094	3980.597900
1745.854492	4166.719238
1744.836914	4158.607422
1743.820313	4238.963867
1742.802734	4093.253662
1741.785156	4178.505859
1740.766602	4128.644043
1739.749023	4206.492676
1738.730469	4019.152588
1737.711914	4121.540039
1736.693359	4123.263672
1735.674805	4117.625488
1734.655273	4212.580078
1733.636719	4130.883789
1732.617188	4125.246094
1731.597656	4124.515137
1730.578125	4113.977051
1729.558594	4157.370605
1728.538086	4193.395996
1727.517578	4192.652344
1726.497070	4196.808594
1725.476563	4125.027832
1724.456055	4192.871094
1723.435547	4148.051758
1722.414063	4088.558105
1721.392578	4217.566406
1720.371094	4116.476074
1719.349609	4238.092773
1718.327148	4149.266602
1717.305664	4160.761230
1716.283203	4169.805176
1715.260742	4200.853027
1714.238281	4195.218262
1713.215820	4152.919922
1712.192383	4007.992920
1711.168945	4185.654785
1710.146484	4150.709473
1709.123047	4189.054199
1708.098633	4290.881348
1707.075195	4153.382813
1706.050781	4116.026367
1705.026367	4254.424805
1704.001953	4219.503418
1702.977539	4206.554199
1701.953125	4261.917480
1700.927734	4229.451660
1699.903320	4238.455566
1698.877930	4203.567383
1697.852539	4205.258301
1696.826172	4158.201172
1695.800781	4310.991211
1694.774414	4168.906738
1693.748047	4277.790527
1692.721680	4277.030762
1691.695313	4242.177734
1690.668945	4200.032227
1689.641602	4062.961670
1688.614258	4149.861328
1687.586914	4153.991211
1686.559570	4204.347168
1685.532227	4116.025391
1684.503906	4246.632813
1683.475586	4231.287598
1682.447266	4130.850586
1681.418945	4258.954590
1680.390625	4275.210938
1679.362305	4289.031250
1678.333008	4144.921387
1677.303711	4265.643555
1676.274414	4281.886230
1675.245117	4268.983398
1674.214844	4132.262695
1673.185547	4184.932129
1672.155273	4179.333984
1671.125000	4261.094727
1670.094727	4238.501465
1669.063477	4196.510254
1668.033203	4280.648926
1667.001953	4333.234863
1665.970703	4228.213379
1664.939453	4232.309082
1663.908203	4168.543457
1662.875977	4160.532227
1661.844727	4247.009277
1660.812500	4255.942871
1659.780273	4262.451172
1658.748047	4196.314453
1657.714844	4321.458984
1656.682617	4173.036133
1655.649414	4211.015137
1654.616211	4253.820313
1653.583008	4180.485352
1652.548828	4165.228027
1651.515625	4246.711914
1650.481445	4229.030273
1649.447266	4271.792969
1648.413086	4239.610352
1647.378906	4318.605469
1646.343750	4184.942871
1645.308594	4251.840820
1644.274414	4280.068359
1643.239258	4187.537598
1642.203125	4155.402832
1641.167969	4253.640625
1640.131836	4252.882813
1639.095703	4186.967773
1638.059570	4171.745117
1637.023438	4238.548828
1635.987305	4179.906738
1634.950195	4306.972656
1633.913086	4139.839844
1632.876953	4196.958008
1631.838867	4285.388672
1630.801758	4231.609375
1629.764648	4189.895996
1628.726563	4307.187500
1627.688477	4272.700684
1626.650391	4310.468262
1625.612305	4162.833008
1624.573242	4352.261719
1623.534180	4284.095215
1622.496094	4179.857910
1621.457031	4246.479004
1620.416992	4226.477539
1619.377930	4333.952637
1618.337891	4275.468262
1617.298828	4330.002930
1616.258789	4365.287598
1615.217773	4215.500488
1614.177734	4298.851074
1613.136719	4238.021484
1612.096680	4350.163574
1611.055664	4229.304688
1610.014648	4264.568848
1608.972656	4237.398926
1607.931641	4255.846191
1606.889648	4283.885742
1605.847656	4309.516113
1604.805664	4347.132324
1603.763672	4216.829102
1602.720703	4300.014648
1601.678711	4260.882324
1600.635742	4454.308594
1599.592773	4355.239258
1598.549805	4337.686035
1597.505859	4305.762695
1596.462891	4254.685059
1595.418945	4347.339355
1594.375000	4301.062012
1593.331055	4307.477051
1592.286133	4354.586914
1591.242188	4270.036133
1590.197266	4309.956055
1589.152344	4424.034180
1588.107422	4341.908203
1587.062500	4365.050781
1586.016602	4392.967773
1584.971680	4349.145508
1583.925781	4374.664551
1582.879883	4306.959961
1581.833008	4346.814941
1580.787109	4436.830078
1579.740234	4479.035645
1578.693359	4466.293457
1577.646484	4377.140625
1576.599609	4407.396484
1575.552734	4461.512207
1574.504883	4370.020996
1573.457031	4362.081055
1572.409180	4342.214844
1571.361328	4455.937988
1570.313477	4486.145996
1569.264648	4292.195313
1568.215820	4441.627930
1567.166992	4383.625000
1566.118164	4425.740234
1565.069336	4334.400391
1564.019531	4386.038574
1562.969727	4432.894043
1561.920898	4370.180664
1560.870117	4493.218262
1559.820313	4561.455566
1558.770508	4413.061523
1557.719727	4376.574219
1556.668945	4328.202148
1555.618164	4477.305664
1554.567383	4431.311523
1553.515625	4532.779785
1552.464844	4463.014160
1551.413086	4493.120605
1550.361328	4497.070313
1549.309570	4439.230469
1548.256836	4500.212891
1547.204102	4409.134277
1546.152344	4443.973145
1545.099609	4307.815918
1544.045898	4527.858398
1542.993164	4284.908691
1541.939453	4319.743652
1540.886719	4373.550781
1539.833008	4396.494141
1538.779297	4445.523438
1537.724609	4385.432617
1536.670898	4322.991699
1535.616211	4343.556152
1534.561523	4411.522949
1533.506836	4382.291992
1532.452148	4277.241699
1531.396484	4309.645020
1530.340820	4408.363281
1529.285156	4533.098145
1528.229492	4513.342285
1527.173828	4493.593262
1526.118164	4483.319336
1525.061523	4333.414551
1524.004883	4337.370605
1522.948242	4405.202637
1521.891602	4342.912109
1520.833984	4195.503906
1519.777344	4355.542969
1518.719727	4333.484863
1517.662109	4384.709961
1516.603516	4268.122559
1515.545898	4376.049805
1514.487305	4344.553223
1513.429688	4327.239746
1512.371094	4291.040039
1511.311523	4280.825684
1510.252930	4317.830078
1509.193359	4184.876953
1508.134766	4330.440918
1507.075195	4303.709961
1506.014648	4269.911133
1504.955078	4276.221191
1503.895508	4183.483398
1502.834961	4291.191895
1501.774414	4240.916992
1500.713867	4358.003906
1499.652344	4303.021484
1498.591797	4375.288574
1497.530273	4341.523926
1496.468750	4347.810547
1495.407227	4292.869141
1494.345703	4190.858887
1493.283203	4166.566895
1492.220703	4274.083008
1491.159180	4285.081543
1490.095703	4312.544922
1489.033203	4274.134277
1487.970703	4245.144043
1486.907227	4129.160645
1485.843750	4278.885254
1484.780273	4238.156738
1483.716797	4192.742188
1482.652344	4203.737793
1481.588867	4134.852051
1480.524414	4237.461914
1479.459961	4156.851563
1478.394531	4191.326172
1477.330078	4192.920898
1476.264648	4189.820801
1475.200195	4221.923340
1474.133789	4169.543945
1473.068359	4255.596191
1472.002930	4266.559082
1470.936523	4223.580078
1469.870117	4152.479980
1468.803711	4203.307617
1467.737305	4165.050781
1466.670898	4253.353027
1465.603516	4154.181152
1464.536133	4188.573730
1463.468750	4244.033203
1462.401367	4367.383301
1461.333984	4331.478027
1460.265625	4208.971680
1459.197266	4285.451172
1458.128906	4095.134521
1457.060547	4127.153320
1455.992188	4208.284180
1454.922852	4242.609863
1453.854492	4260.553711
1452.785156	4276.153320
1451.714844	4184.219727
1450.645508	4213.849609
1449.575195	4224.775391
1448.505859	4186.634277
1447.435547	4272.308594
1446.365234	4192.134277
1445.293945	4275.441406
1444.223633	4270.002930
1443.152344	4287.907715
1442.081055	4252.129395
1441.009766	4265.364258
1439.938477	4150.283203
1438.866211	4203.184082
1437.793945	4256.065430
1436.721680	4238.977539
1435.649414	4238.214355
1434.577148	4430.910645
1433.503906	4306.601074
1432.431641	4214.955566
1431.358398	4295.731934
1430.285156	4353.187012
1429.210938	4364.046875
1428.137695	4367.917480
1427.063477	4287.982422
1425.989258	4329.104492
1424.915039	4358.576660
1423.840820	4301.952148
1422.765625	4340.723145
1421.691406	4330.637695
1420.616211	4357.762207
1419.541016	4361.626953
1418.464844	4346.893555
1417.389648	4150.884277
1416.313477	4212.875977
1415.237305	4249.289551
1414.161133	4204.389160
1413.084961	4268.659668
1412.007813	4386.313965
1410.931641	4255.513184
1409.854492	4233.855469
1408.777344	4416.433105
1407.700195	4322.822754
1406.622070	4291.884277
1405.543945	4309.666504
1404.466797	4315.846680
1403.387695	4352.167480
1402.309570	4284.152832
1401.231445	4364.504883
1400.152344	4266.385742
1399.073242	4353.662598
1397.994141	4385.309570
1396.915039	4277.974609
1395.834961	4293.413086
1394.755859	4331.999023
1393.675781	4257.140137
1392.595703	4281.831543
1391.514648	4269.488770
1390.434570	4257.149902
1389.353516	4219.369629
1388.272461	4248.674805
1387.191406	4363.528809
1386.110352	4341.933594
1385.029297	4304.164551
1383.947266	4365.789063
1382.865234	4337.271973
1381.783203	4260.248047
1380.701172	4266.408691
1379.618164	4332.613770
1378.536133	4329.521973
1377.453125	4317.197266
1376.370117	4302.567871
1375.286133	4274.097168
1374.203125	4259.480957
1373.119141	4334.842285
1372.035156	4426.322266
1370.951172	4277.928711
1369.867188	4277.155762
1368.783203	4327.100098
1367.698242	4351.672363
1366.613281	4337.059570
1365.528320	4267.153320
1364.443359	4211.094238
1363.357422	4330.102539
1362.272461	4241.812500
1361.186523	4335.444824
1360.100586	4260.997070
1359.013672	4301.655273
1357.927734	4270.962891
1356.840820	4318.506348
1355.753906	4395.937012
1354.666992	4365.243652
1353.580078	4189.692383
1352.492188	4296.991699
1351.405273	4300.812012
1350.317383	4329.911621
1349.229492	4147.599609
1348.140625	4229.556641
1347.052734	4272.434570
1345.963867	4264.772461
1344.875000	4211.188965
1343.786133	4288.482910
1342.697266	4276.230469
1341.608398	4387.908203
1340.518555	4302.217285
1339.428711	4207.380859
1338.338867	4197.444824
1337.248047	4228.791016
1336.158203	4289.933105
1335.067383	4208.921387
1333.976563	4359.433105
1332.885742	4218.855957
1331.794922	4238.712891
1330.703125	4226.492188
1329.612305	4273.824707
1328.520508	4229.541992
1327.428711	4219.617676
1326.335938	4266.925293
1325.244141	4284.462402
1324.151367	4242.497559
1323.058594	4202.835449
1321.965820	4263.835938
1320.873047	4304.230469
1319.779297	4184.545898
1318.685547	4186.074219
1317.591797	4251.604492
1316.498047	4248.548828
1315.404297	4181.514648
1314.309570	4267.570801
1313.214844	4159.442383
1312.121094	4103.878906
1311.025391	4276.667969
1309.930664	4278.175781
1308.834961	4281.965820
1307.740234	4349.652344
1306.644531	4173.175293
1305.547852	4297.888184
1304.452148	4212.717773
1303.355469	4232.478027
1302.259766	4313.791504
1301.163086	4306.170410
1300.065430	4223.338867
1298.968750	4140.537109
1297.871094	4214.972168
1296.774414	4159.537109
1295.676758	4224.831543
1294.578125	4189.908691
1293.480469	4159.551270
1292.381836	4177.007324
1291.283203	4208.111816
1290.184570	4202.797852
1289.085938	4147.434082
1287.987305	4214.920898
1286.887695	4225.527344
1285.788086	4154.272461
1284.688477	4103.503418
1283.588867	4239.138672
1282.488281	4233.824219
1281.388672	4217.150879
1280.288086	4148.232422
1279.187500	4152.022461
1278.085938	4164.894531
1276.985352	4198.196289
1275.883789	4285.968262
1274.782227	4110.423340
1273.680664	4052.945068
1272.579102	4115.737793
1271.476563	4126.332520
1270.375000	4130.119629
1269.272461	4233.680664
1268.169922	4239.713867
1267.066406	4195.874023
1265.963867	4074.992676
1264.860352	4060.656738
1263.756836	4107.496094
1262.653320	4124.871582
1261.549805	4121.857422
1260.445313	4200.360352
1259.340820	4138.471191
1258.236328	4119.610840
1257.131836	4103.020508
1256.027344	4106.800293
1254.921875	4063.070801
1253.816406	4023.880371
1252.710938	4057.071045
1251.605469	4110.599121
1250.500000	4109.851563
1249.393555	3987.052002
1248.287109	4063.161133
1247.180664	3942.673584
1246.074219	4075.237793
1244.966797	3972.860352
1243.860352	4042.141602
1242.752930	4075.272949
1241.645508	4074.531738
1240.538086	4028.651855
1239.429688	3939.914307
1238.321289	3927.916992
1237.212891	4003.896729
1236.104492	3940.020020
1234.996094	3968.616699
1233.887695	4042.292725
1232.778320	3915.329102
1231.668945	4040.822021
1230.559570	4049.099609
1229.449219	4039.351563
1228.339844	3957.528809
1227.229492	3886.995605
1226.119141	3859.268799
1225.008789	3917.097656
1223.898438	3898.378418
1222.787109	4014.688721
1221.675781	4040.957764
1220.564453	4035.722900
1219.453125	4007.998291
1218.341797	4014.014648
1217.229492	4022.277100
1216.117188	4088.982422
1215.004883	3843.258301
1213.892578	3930.195557
1212.779297	3902.519287
1211.666992	3908.547363
1210.553711	3820.246094
1209.440430	3837.513916
1208.327148	3926.617432
1207.212891	4015.688232
1206.098633	3936.407959
1204.985352	3830.230469
1203.870117	3883.374756
1202.755859	3925.284424
1201.641602	3920.083984
1200.526367	3982.151123
1199.411133	3967.974609
1198.295898	3942.596191
1197.179688	3879.130127
1196.064453	3851.536133
1194.948242	3911.318359
1193.832031	3834.453613
1192.715820	3874.062744
1191.598633	3882.312256
1190.482422	3850.264893
1189.365234	3948.040039
1188.248047	3949.557617
1187.130859	3917.515137
1186.012695	3842.983154
1184.895508	3837.809326
1183.777344	3944.440918
1182.659180	4008.555664
1181.540039	3943.001953
1180.421875	3855.123291
1179.302734	3834.309814
1178.183594	3987.758789
1177.064453	3989.264893
1175.945313	3928.239746
1174.825195	3842.676025
1173.706055	3933.503418
1172.585938	3901.537354
1171.465820	3887.435791
1170.344727	3996.054199
1169.224609	3984.170898
1168.103516	3970.061279
1166.982422	3897.977539
1165.861328	3935.168457
1164.739258	3829.679932
1163.618164	3886.927979
1162.496094	3953.068115
1161.374023	4048.147217
1160.250977	3920.438965
1159.128906	3821.729980
1158.005859	3952.407715
1156.882813	4027.379883
1155.759766	3881.961182
1154.636719	3832.291260
1153.512695	3853.841797
1152.389648	3906.530029
1151.265625	3968.095703
1150.141602	4027.414795
1149.016602	3946.634521
1147.892578	3865.883301
1146.767578	3889.625977
1145.642578	3975.582275
1144.517578	3945.971680
1143.391602	3978.571777
1142.266602	3953.413330
1141.140625	3941.587402
1140.014648	3898.682861
1138.888672	3844.694824
1137.761719	3852.869385
1136.634766	3920.953613
1135.507813	3853.678955
1134.380859	3946.137695
1133.253906	3905.496094
1132.126953	3847.130371
1130.999023	3890.765869
1129.871094	3987.582520
1128.743164	3900.423096
1127.614258	3835.453125
1126.486328	3894.565430
1125.357422	3986.880127
1124.228516	3935.216309
1123.099609	4016.418945
1121.969727	3851.868652
1120.840820	3829.030762
1119.710938	3865.949219
1118.581055	3891.791748
1117.450195	3926.472900
1116.320313	3846.133301
1115.189453	3854.274170
1114.058594	3815.983643
1112.927734	3764.444092
1111.796875	3852.157715
1110.665039	3862.500732
1109.534180	3819.817383
1108.402344	3812.491211
1107.270508	3875.838135
1106.137695	3795.638428
1105.005859	3858.965088
1103.873047	4006.143311
1102.740234	3778.105225
1101.606445	3788.445313
1100.473633	3856.137939
1099.339844	3798.085205
1098.206055	3773.131836
1097.072266	3873.862061
1095.938477	3917.240479
1094.803711	3845.994385
1093.669922	3887.157959
1092.535156	3846.787842
1091.400391	3865.907959
1090.264648	3803.532227
1089.129883	3893.116699
1087.994141	3780.122070
1086.858398	3834.458496
1085.722656	3901.979492
1084.585938	3905.664795
1083.450195	3898.348877
1082.313477	3866.839844
1081.176758	3918.910645
1080.039063	3907.198242
1078.902344	3880.101318
1077.764648	3910.160889
1076.626953	3819.343994
1075.489258	3803.263428
1074.351563	3857.484131
1073.212891	3891.917969
1072.074219	3913.163330
1070.935547	3842.187988
1069.796875	3889.775879
1068.658203	3814.441162
1067.518555	3868.599365
1066.378906	3909.573975
1065.239258	3816.728516
1064.099609	3980.511719
1062.958984	3852.603516
1061.819336	3911.088623
1060.678711	3875.300049
1059.537109	3863.631104
1058.396484	3959.330322
1057.255859	4054.994385
1056.114258	3931.592773
1054.972656	3939.630371
1053.831055	3877.600830
1052.688477	3874.699463
1051.545898	3961.535645
1050.404297	3921.418701
1049.261719	3916.322510
1048.118164	3957.165283
1046.975586	3879.890381
1045.832031	3890.110840
1044.688477	3825.993896
1043.544922	3882.123779
1042.401367	3828.958740
1041.256836	3867.586426
1040.112305	3845.028809
1038.967773	3986.300049
1037.823242	3939.706055
1036.677734	3976.100830
1035.533203	3877.131592
1034.387695	3889.514893
1033.242188	3910.622559
1032.096680	4016.814941
1030.950195	3911.365967
1029.803711	3960.811035
1028.657227	3805.255615
1027.510742	3900.487305
1026.364258	3834.374268
1025.216797	3890.334961
1024.069336	3889.619141
1022.921875	3906.333008
1021.774414	3966.605469
1020.626953	3937.563721
1019.478516	3821.434082
1018.330078	3992.718262
1017.181641	4044.223145
1016.033203	3923.785156
1014.883789	3942.645508
1013.734375	3839.673828
1012.584961	3852.017334
1011.435547	3890.451904
1010.286133	3794.068848
1009.135742	3865.107422
1007.985352	3896.997559
1006.834961	3911.491455
1005.684570	3897.735352
1004.533203	3886.156494
1003.382813	3800.738770
1002.231445	3893.411133
1001.079102	3968.680908
999.927734	3959.267334
998.776367	3925.984375
997.624023	3877.524414
996.471680	3920.199219
995.318359	3878.264893
994.166016	3996.826416
993.012695	3837.807373
991.859375	3951.996582
990.706055	3842.895752
989.552734	3887.695557
988.398438	3884.812500
987.245117	3827.773926
986.090820	3911.536865
984.936523	3932.470459
983.781250	3810.502197
982.625977	3902.880127
981.471680	3837.232666
980.316406	3758.626221
979.160156	3775.240967
978.004883	3876.208740
976.848633	3862.518066
975.692383	3881.266113
974.536133	3900.007080
973.379883	3771.761230
972.222656	3907.212891
971.065430	3839.511475
969.908203	3864.726318
968.750977	3842.414795
967.592773	3811.473145
966.435547	3828.042480
965.277344	3758.258545
964.119141	3731.665771
962.959961	3871.239258
961.801758	3948.194336
960.642578	3852.553955
959.483398	3853.999512
958.324219	3924.445557
957.164063	3794.367676
956.004883	3920.841309
954.844727	3926.582764
953.684570	3861.217041
952.523438	3897.127197
951.363281	4001.948730
950.202148	3945.218506
949.041016	3961.714844
947.879883	3816.751709
946.717773	3887.072998
945.556641	3942.304932
944.394531	3756.546387
943.232422	3869.861572
942.070313	3877.749512
940.907227	4018.954590
939.744141	4001.012451
938.581055	3948.684570
937.417969	3960.849609
936.254883	3848.383545
935.090820	3864.859131
933.926758	3967.245850
932.762695	3893.496094
931.598633	3903.512207
930.433594	3907.084229
929.269531	3955.728027
928.104492	4120.235352
926.939453	4044.378906
925.773438	3981.421387
924.608398	3957.092773
923.442383	3885.596924
922.276367	3996.364746
921.109375	3980.620605
919.943359	3979.884521
918.776367	3887.008545
917.609375	3944.134033
916.442383	3844.872803
915.275391	3914.834229
914.107422	3903.403809
912.939453	3984.032227
911.771484	3865.572754
910.603516	3922.637695
909.435547	4039.590576
908.266602	3953.274170
907.097656	3943.987305
905.928711	3936.842041
904.759766	3976.735840
903.589844	3961.036133
902.419922	3943.205078
901.250000	3972.390869
900.080078	4018.657227
898.909180	4058.498047
897.739258	3946.692383
896.568359	3986.531494
895.397461	3979.388672
894.225586	3974.382568
893.054688	3984.316895
891.882813	4049.722900
890.710938	3938.041992
889.539063	4095.146240
888.366211	4064.532715
887.193359	3980.627686
886.021484	4033.182861
884.847656	4055.879883
883.674805	3923.011719
882.500977	3905.240479
881.328125	3996.112061
880.154297	3903.792969
878.979492	3930.750732
877.805664	3957.698486
876.630859	3997.406982
875.456055	3924.308838
874.281250	3946.986572
873.106445	3927.108643
871.930664	3839.174805
870.754883	3944.791504
869.579102	4052.494873
868.403320	3822.158691
867.227539	3880.960693
866.050781	3950.365723
864.874023	3862.524414
863.697266	3866.056396
862.519531	3886.577148
861.342773	3958.052490
860.165039	3987.040283
858.987305	3977.810059
857.809570	3883.693604
856.630859	3982.699463
855.452148	3979.838867
854.273438	4023.642334
853.094727	3959.275635
851.916016	3954.300293
850.736328	3868.771240
849.556641	3980.385498
848.376953	4002.956543
847.197266	3951.364746
846.017578	3965.458984
844.836914	3858.827393
843.656250	3972.456543
842.475586	3891.268311
841.293945	3968.864502
840.113281	3923.684326
838.931641	3941.999023
837.750000	3953.959961
836.567383	3963.801270
835.385742	3956.720459
834.203125	3913.697998
833.020508	3921.426758
831.837891	3901.675781
830.654297	3881.932129
829.471680	3944.594727
828.288086	3910.062988
827.104492	3926.232422
825.919922	3929.725830
824.736328	3962.775146
823.551758	3945.151611
822.367188	4016.173340
821.182617	3983.775879
819.997070	3964.048340
818.812500	3982.294678
817.626953	3930.941162
816.441406	3913.342285
815.254883	3999.046143
814.069336	4006.733154
812.882813	3959.627197
811.696289	3996.814941
810.508789	4025.562744
809.322266	4106.953125
808.134766	4087.237305
806.947266	4063.318115
805.759766	4043.617432
804.572266	3996.564453
803.383789	4115.758789
802.195313	4272.775879
801.006836	4364.529785
799.818359	4439.425293
798.628906	4535.318848
797.439453	4681.629395
796.250000	4506.306641
795.060547	4648.365234
793.871094	4641.196777
792.680664	4816.786621
791.490234	4841.092773
790.299805	5037.579102
789.109375	5166.808105
787.917969	5445.023926
786.726563	6037.939941
785.535156	6462.770508
784.343750	6860.169922
783.152344	7022.498535
781.959961	7098.784180
780.767578	7045.042969
779.575195	7152.740234
778.381836	7084.336914
777.189453	6816.879883
775.996094	6861.703125
774.802734	6726.357910
773.609375	6310.414063
772.415039	5865.308594
771.220703	5663.228516
770.026367	5482.155273
768.832031	5294.871094
767.637695	5109.748535
766.442383	4868.209473
765.247070	4821.285156
764.051758	4663.540527
762.855469	4541.399902
761.660156	4507.104980
760.463867	4573.147461
759.267578	4507.513184
758.071289	4548.458984
756.874023	4547.610352
755.676758	4684.605957
754.480469	4698.349121
753.282227	4743.403320
752.084961	4859.411133
750.886719	4987.897461
749.688477	4974.447266
748.490234	4896.329102
747.291992	4786.952637
746.092773	4690.129395
744.894531	4645.468262
743.695313	4586.230957
742.495117	4591.627441
741.295898	4421.976563
740.095703	4431.568359
738.895508	4499.482910
737.695313	4500.725098
736.495117	4691.458008
735.293945	4623.959961
734.092773	4750.070313
732.891602	4640.963379
731.690430	4704.600098
730.488281	4786.936035
729.286133	4736.122070
728.083984	4860.012695
726.881836	4786.332520
725.679688	4908.088379
724.476563	5044.347656
723.273438	5367.579102
722.070313	5667.835449
720.866211	5909.816406
719.663086	6193.243652
718.458984	6613.612793
717.254883	6685.040039
716.050781	6785.500000
714.845703	6697.067871
713.640625	6675.066406
712.435547	6364.710449
711.230469	6095.954102
710.025391	6061.633789
708.819336	5782.666504
707.613281	5619.891113
706.407227	5548.371582
705.200195	5443.722656
703.994141	5461.350586
702.787109	5389.899902
701.580078	5424.099609
700.373047	5286.420410
699.165039	5256.447266
697.957031	5164.388184
696.749023	5219.298340
695.541016	5216.252441
694.333008	5126.320801
693.124023	5069.515625
691.915039	5114.062012
690.706055	5115.172363
689.496094	5062.534668
688.287109	5080.188477
687.077148	5122.631836
685.867188	5063.823730
684.656250	5023.628418
683.446289	5018.557129
682.235352	5075.433594
681.024414	4965.065430
679.813477	4955.879395
678.601563	4890.976074
677.390625	4875.616699
676.178711	4821.066895
674.965820	4762.412598
673.753906	4745.022949
672.541016	4711.145508
671.328125	4650.482422
670.115234	4505.341309
668.902344	4461.224121
667.688477	4322.352539
666.475586	4265.926758
665.261719	4178.630371
664.046875	4136.665527
662.833008	4123.538086
661.618164	3993.092285
660.403320	3975.880371
659.188477	3927.811768
657.972656	3898.275146
656.757813	3809.103760
655.541992	3810.445801
654.326172	3789.171387
653.109375	3846.017334
651.893555	3849.406250
650.676758	3760.326660
649.459961	3829.472168
648.242188	3888.321045
647.025391	3926.611328
645.807617	3817.050537
644.589844	3777.329102
643.372070	3803.302979
642.153320	3827.214600
640.935547	3728.012695
639.716797	3901.678223
638.497070	3833.263672
637.278320	3830.493652
636.058594	3784.669922
634.838867	3736.813721
633.619141	3803.743164
632.399414	3641.154297
631.178711	3787.974121
629.958984	3840.518066
628.737305	3819.317871
627.516602	3808.362793
626.295898	3754.422363
625.074219	3720.969238
623.852539	3800.078125
622.630859	3750.260742
621.408203	3821.151611
620.185547	3767.258545
618.962891	3729.743896
617.740234	3786.287109
616.517578	3734.474365
615.293945	3774.645752
614.070313	3804.585449
612.846680	3889.671875
611.623047	3780.687500
610.398438	3831.030029
609.173828	3893.603760
607.949219	3919.409424
606.724609	4002.352295
605.499023	4089.345215
604.274414	3966.163818
603.048828	3949.099365
601.822266	4103.354004
600.596680	3880.324951
599.370117	3983.567383
598.143555	3962.435059
596.916992	3912.780029
595.690430	3873.330811
594.462891	3850.193604
593.235352	3959.453857
592.007813	3907.799561
590.780273	3949.819824
589.551758	3837.118164
588.323242	3828.255127
587.094727	3827.534424
585.866211	3816.641846
584.636719	3858.638916
583.407227	3717.587646
582.177734	3824.653076
580.948242	3771.076904
579.718750	3861.831299
578.488281	3824.525146
577.257813	3892.885254
576.027344	3863.712646
574.795898	3769.558350
573.564453	3880.532959
572.333984	3851.378418
571.101563	3816.145264
569.870117	3748.453369
568.637695	3883.696777
567.405273	3734.868652
566.172852	3815.298340
564.940430	3765.908447
563.707031	3769.253906
562.474609	3898.283691
561.240234	3782.020996
560.006836	3716.462402
558.773438	3859.610840
557.539063	3767.728516
556.304688	3767.018311
555.070313	3695.436523
553.834961	3795.965576
552.599609	3716.308594
551.364258	3741.916504
550.128906	3901.057129
548.893555	3758.712158
547.657227	3792.387451
546.420898	3852.338867
545.184570	3851.612061
543.947266	3794.284668
542.710938	3809.737305
541.473633	3796.894287
540.236328	3860.828125
538.998047	3961.096436
537.760742	3996.700928
536.522461	4036.330078
535.284180	4130.451660
534.045898	4174.077148
532.806641	4096.604004
531.567383	4059.512939
530.328125	4117.247070
529.088867	4189.078125
527.848633	4085.445068
526.609375	4026.206055
525.369141	4069.791992
524.127930	4149.638184
522.887695	4096.464844
521.646484	4073.530518
520.405273	4056.647217
519.164063	4112.268555
517.922852	4194.043457
516.680664	4136.884766
515.438477	4176.357422
514.196289	4141.358887
512.953125	4247.208984
511.710938	4296.695801
510.467773	4301.916992
509.224609	4401.644043
507.980469	4378.697754
506.737305	4406.010254
505.493164	4569.969727
504.249023	4518.874023
503.004883	4477.841309
501.759766	4464.943848
500.514648	4488.197266
499.269531	4599.783203
498.024414	4590.883789
496.778320	4495.686523
495.532227	4553.028320
494.286133	4612.354004
493.040039	4623.517090
491.793945	4600.582031
490.546875	4567.629883
489.299805	4673.016113
488.052734	4509.779785
486.804688	4633.172363
485.557617	4602.242188
484.309570	4635.425781
483.060547	4712.658691
481.812500	4759.825684
480.563477	4552.711426
479.314453	4663.944336
478.065430	4629.039063
476.816406	4612.155273
475.566406	4607.280762
474.316406	4724.418945
473.066406	4655.531250
471.816406	4660.647461
470.565430	4729.731445
469.314453	4796.790039
468.063477	4919.775391
466.812500	5032.724121
465.560547	5205.555664
464.309570	5220.546387
463.056641	5307.415039
461.804688	5144.702148
460.552734	5041.930176
459.299805	5154.726074
458.046875	5135.791992
456.792969	5206.634277
455.540039	5293.405762
454.286133	5240.555176
453.032227	5321.305176
451.778320	5232.588379
450.523438	5157.855469
449.269531	5208.685547
448.014648	5000.505859
446.758789	5077.239746
445.503906	5078.268555
444.248047	5029.519043
442.992188	4940.973633
441.736328	4852.460938
440.480469	4815.721191
439.223633	4659.619629
437.966797	4674.649414
436.709961	4600.175781
435.452148	4595.325684
434.195313	4594.454102
432.937500	4587.619141
431.679688	4644.380859
430.420898	4748.807617
429.162109	4920.738281
427.904297	4997.265625
426.644531	4996.317383
425.385742	5328.922852
424.125977	5361.657227
422.867188	5352.700195
421.606445	5315.966309
420.346680	5291.149902
419.085938	5214.770020
417.826172	5180.065430
416.565430	5204.858398
415.303711	5320.832520
414.042969	5438.745117
412.781250	5534.813965
411.519531	5878.508301
410.256836	6418.182617
408.995117	7868.702148
407.732422	11338.441406
406.469727	16814.369141
405.207031	25130.658203
403.943359	37186.144531
402.679688	57276.359375
401.416016	101029.132813
400.152344	0.000000
398.887695	0.000000
397.624023	75288.234375
396.358398	27097.742188
395.093750	13350.630859
393.829102	9125.312500
392.563477	7511.442383
391.297852	6842.369629
390.032227	6493.484863
388.765625	6229.637695
387.499023	6038.934082
386.232422	5789.089355
384.965820	5624.195801
383.699219	5488.959961
382.431641	5420.845215
381.164063	5388.257324
379.896484	5548.927734
378.627930	5461.125000
377.359375	5596.094727
376.090820	5758.604004
374.822266	6021.541504
373.553711	6812.345215
372.284180	8453.736328
371.014648	11593.120117
369.745117	16727.771484
368.474609	24592.781250
367.205078	36477.691406
365.934570	56146.531250
364.663086	83746.335938
363.392578	104484.476563
362.121094	99290.312500
360.849609	75514.851563
359.578125	53669.121094
358.306641	40033.863281
357.034180	31674.335938
355.761719	25968.478516
354.489258	21484.687500
353.215820	17821.607422
351.943359	15273.312500
350.669922	12934.097656
349.396484	11561.522461
348.122070	10299.373047
346.847656	9157.395508
345.574219	8476.872070
344.298828	7782.877930
343.024414	7283.291016
341.749023	6913.297363
340.473633	6637.538574
339.198242	6267.809082
337.922852	6151.000488
336.646484	5932.359863
335.370117	5584.521973
334.093750	5520.787109
332.816406	5427.706055
331.540039	5191.749512
330.262695	5094.851563
328.985352	4949.066895
327.707031	4862.034180
326.429688	4751.560059
325.151367	4621.570313
323.873047	4593.312012
322.593750	4498.592773
321.314453	4394.135254
320.035156	4534.007324
318.755859	4398.319824
317.476563	4370.130371
316.196289	4283.355469
314.916016	4157.556641
313.635742	4203.621582
312.355469	4148.160645
311.074219	4053.686768
309.792969	4138.770996
308.511719	4038.481689
307.229492	4014.303467
305.948242	4163.702637
304.666016	4040.067383
303.383789	3974.963135
302.100586	3943.018066
300.818359	3944.213379
299.535156	3910.337891
298.250977	3944.654053
296.967773	4010.118652
295.683594	4001.563477
294.399414	4131.238281
293.115234	4342.615723
291.831055	4450.768066
290.545898	4660.057617
289.260742	4812.851074
287.975586	5002.540527
286.690430	5190.212891
285.404297	5323.374023
284.118164	5353.458008
282.832031	5358.264648
281.544922	5489.373535
280.258789	5455.296387
278.971680	5491.158203
277.683594	5631.875488
276.396484	5562.840332
275.108398	5569.541016
273.820313	5549.065918
272.532227	5586.814941
271.243164	5605.147461
269.955078	5681.666504
268.666016	5566.152832
267.376953	5654.284180
266.086914	5701.668457
264.796875	5677.317383
263.506836	5817.700195
262.216797	5828.211426
260.926758	5763.167969
259.635742	5977.052246
258.344727	5995.272461
257.053711	6009.612793
255.761719	6142.025879
254.469727	6164.073730
253.177734	6104.843750
251.885742	6090.131836
250.593750	6034.806641
249.300781	6018.179199
248.007813	5848.812500
246.713867	5865.089844
245.420898	5910.352051
244.126953	6058.012207
242.833008	6186.295898
241.539063	6324.187988
240.244141	6471.683594
238.949219	6709.874512
237.654297	7173.845703
236.359375	7425.320801
235.063477	7601.437500
233.768555	7702.239258
232.472656	7677.613770
231.175781	7566.206543
229.879883	7385.422852
228.583008	6957.931641
227.286133	6590.358887
225.988281	6380.957031
224.691406	6267.976563
223.393555	6207.053711
222.095703	6257.867188
220.796875	6223.929199
219.499023	6182.302734
218.200195	6294.689941
216.901367	6453.224609
215.601563	6473.152832
214.302734	6654.678223
213.002930	6813.051270
211.703125	6986.749023
210.402344	7154.610840
209.102539	7624.224121
207.801758	7947.583008
206.500000	7924.918457
205.199219	7521.847168
203.897461	7213.055176
202.595703	6839.083008
201.293945	6540.140625
199.992188	6318.105957
198.689453	6151.819824
197.386719	6246.591797
196.083984	6122.594238
194.780273	5929.583984
193.477539	5845.972168
192.173828	5852.519043
190.869141	5891.655762
189.565430	5892.440430
188.260742	6012.046875
186.956055	6039.633301
185.651367	5812.412598
184.345703	5619.756348
183.040039	5522.924316
181.734375	5428.044434
180.428711	5543.771973
179.122070	5469.977051
177.816406	5489.974121
176.508789	5464.046875
175.202148	5403.698730
173.895508	5440.908203
172.587891	5218.060547
171.280273	5218.968262
169.971680	5168.269531
168.664063	5041.150391
167.355469	5030.627441
166.046875	5056.402832
164.737305	4942.747070
163.427734	4955.162598
162.119141	4847.296875
160.808594	4833.002441
159.499023	4667.949707
158.188477	4541.120605
156.877930	4484.924316
155.567383	4434.470703
154.256836	4427.895996
152.945313	4274.518066
151.633789	4130.729980
150.322266	4110.876465
149.009766	4150.099121
147.697266	4324.568848
146.384766	4321.831055
145.072266	4166.745117
143.759766	4167.846191
142.446289	4168.946777
141.132813	4095.819336
139.818359	4018.914307
138.504883	3951.551270
137.190430	3979.322266
135.875977	3826.411621
134.560547	3740.109619
133.246094	3556.886719
131.930664	3521.988525
130.615234	3597.322754
129.298828	3613.728760
127.983398	3548.445557
126.666992	3612.335205
125.350586	3550.875000
124.033203	3578.667480
122.716797	3638.717529
121.399414	3628.526855
120.081055	3603.160645
118.763672	3503.819824
117.445313	3542.973877
116.126953	3502.468018
114.808594	3513.167725
113.489258	3457.518311
112.170898	3392.414063
110.851563	3363.336914
109.531250	3398.682617
108.211914	3443.485107
106.891602	3408.733154
105.571289	3351.273682
104.250000	3225.688232
102.929688	3096.365479
101.608398	2906.539795
100.287109	2811.382813
98.964844	2689.781006
