#Wave		#Intensity
1945.525391	3447.651367
1943.826172	3609.443848
1942.126953	3679.443604
1940.425781	3678.842041
1938.726563	3609.144043
1937.025391	3617.371582
1935.324219	3663.805664
1933.623047	3710.223633
1931.919922	3712.550781
1930.218750	3635.554932
1928.515625	3668.733398
1926.814453	3606.452393
1925.111328	3630.813721
1923.408203	3659.569824
1921.705078	3711.798340
1920.001953	3709.712891
1918.296875	3709.094482
1916.593750	3614.589600
1914.888672	3615.451904
1913.183594	3701.368164
1911.478516	3628.902344
1909.773438	3735.309326
1908.068359	3728.818115
1906.361328	3643.191895
1904.656250	3626.459961
1902.949219	3646.357178
1901.242188	3672.105713
1899.535156	3630.477783
1897.828125	3572.756592
1896.121094	3639.493408
1894.412109	3640.338135
1892.703125	3625.083008
1890.996094	3700.553711
1889.287109	3688.217529
1887.578125	3610.061035
1885.869141	3584.580322
1884.158203	3507.928711
1882.449219	3570.192139
1880.738281	3617.815674
1879.027344	3693.190430
1877.316406	3615.107910
1875.605469	3569.193115
1873.894531	3612.398193
1872.181641	3582.563232
1870.470703	3641.811523
1868.757813	3550.660889
1867.044922	3604.053711
1865.332031	3562.561523
1863.619141	3490.439209
1861.906250	3524.845459
1860.191406	3509.642578
1858.478516	3545.489990
1856.763672	3582.782227
1855.048828	3547.163330
1853.333984	3494.064209
1851.617188	3618.788574
1849.902344	3613.780273
1848.185547	3498.047363
1846.470703	3511.996582
1844.753906	3543.416992
1843.037109	3605.404297
1841.320313	3629.515869
1839.601563	3522.611816
1837.884766	3527.808105
1836.166016	3562.103516
1834.447266	3548.376221
1832.728516	3457.559570
1831.009766	3545.656982
1829.291016	3467.958008
1827.570313	3471.699463
1825.851563	3587.362061
1824.130859	3508.241699
1822.410156	3539.578857
1820.689453	3541.848633
1818.968750	3531.044189
1817.246094	3520.242920
1815.525391	3496.376709
1813.802734	3456.549316
1812.080078	3567.687256
1810.357422	3539.469482
1808.634766	3482.242188
1806.912109	3543.989746
1805.187500	3563.652588
1803.464844	3529.651855
1801.740234	3547.858398
1800.015625	3431.243164
1798.291016	3448.010010
1796.564453	3485.057373
1794.839844	3453.995605
1793.113281	3412.804199
1791.386719	3493.284180
1789.660156	3443.411133
1787.933594	3445.674805
1786.207031	3450.832275
1784.480469	3518.217773
1782.751953	3495.865967
1781.023438	3422.886963
1779.294922	3454.077393
1777.566406	3418.731689
1775.837891	3439.788574
1774.107422	3401.565918
1772.378906	3546.917725
1770.648438	3420.537109
1768.917969	3510.926514
1767.187500	3422.156250
1765.457031	3349.305664
1763.724609	3374.674805
1761.994141	3368.270996
1760.261719	3402.286621
1758.529297	3453.607178
1756.796875	3359.170654
1755.064453	3455.201416
1753.330078	3385.319336
1751.597656	3432.275146
1749.863281	3402.794189
1748.128906	3413.687988
1746.394531	3364.041748
1744.660156	3425.374023
1742.923828	3436.255127
1741.189453	3406.797363
1739.453125	3416.236328
1737.716797	3418.471191
1735.980469	3381.832764
1734.244141	3304.903809
1732.507813	3347.452393
1730.769531	3351.134521
1729.031250	3465.586914
1727.292969	3381.505859
1725.554688	3346.349854
1723.816406	3311.206543
1722.076172	3376.701416
1720.337891	3383.244141
1718.597656	3363.918213
1716.857422	3419.306641
1715.117188	3348.269287
1713.376953	3350.501221
1711.634766	3332.629395
1709.894531	3392.285645
1708.152344	3423.211914
1706.410156	3313.492188
1704.667969	3368.811279
1702.923828	3398.287842
1701.181641	3291.502686
1699.437500	3374.036621
1697.695313	3407.793945
1695.951172	3339.767822
1694.205078	3297.562988
1692.460938	3420.148438
1690.716797	3376.510742
1688.970703	3362.966553
1687.224609	3362.315186
1685.478516	3474.768555
1683.732422	3395.365234
1681.984375	3388.981201
1680.238281	3388.322510
1678.490234	3343.314697
1676.742188	3275.438721
1674.994141	3332.002197
1673.246094	3285.600098
1671.496094	3362.151123
1669.748047	3421.520996
1667.998047	3403.705078
1666.248047	3338.750244
1664.498047	3355.237061
1662.748047	3330.302002
1660.996094	3332.504639
1659.244141	3317.575439
1657.494141	3372.586426
1655.742188	3290.586670
1653.988281	3269.965820
1652.236328	3290.718262
1650.484375	3361.376221
1648.730469	3342.177490
1646.976563	3370.029297
1645.222656	3353.686035
1643.468750	3367.273193
1641.712891	3262.603027
1639.958984	3334.603760
1638.203125	3252.766602
1636.447266	3327.587158
1634.691406	3348.281006
1632.933594	3415.935303
1631.177734	3355.489990
1629.419922	3289.376953
1627.662109	3375.492676
1625.904297	3356.332520
1624.146484	3322.960449
1622.388672	3292.444336
1620.628906	3398.386963
1618.869141	3407.656006
1617.111328	3411.237793
1615.349609	3397.771484
1613.589844	3426.916016
1611.830078	3326.836670
1610.068359	3329.009521
1608.306641	3397.889893
1606.544922	3432.684570
1604.783203	3406.457764
1603.021484	3412.865967
1601.257813	3477.417236
1599.494141	3445.523926
1597.730469	3403.719238
1595.966797	3414.372559
1594.203125	3420.769775
1592.439453	3394.578125
1590.673828	3342.899902
1588.908203	3485.260742
1587.142578	3494.468018
1585.376953	3437.136475
1583.611328	3430.779785
1581.843750	3441.405762
1580.076172	3480.322021
1578.308594	3506.491699
1576.541016	3461.940430
1574.773438	3475.376953
1573.003906	3507.184326
1571.236328	3483.858398
1569.466797	3392.715332
1567.697266	3328.450928
1565.927734	3384.272217
1564.156250	3380.758301
1562.386719	3421.014160
1560.615234	3433.020752
1558.843750	3395.625977
1557.072266	3361.067871
1555.298828	3392.828125
1553.527344	3397.776123
1551.753906	3380.159180
1549.980469	3427.403076
1548.207031	3406.966797
1546.433594	3263.929688
1544.660156	3383.025879
1542.884766	3341.479004
1541.109375	3360.510986
1539.333984	3262.658936
1537.558594	3361.945801
1535.783203	3238.796631
1534.005859	3273.312012
1532.228516	3285.300781
1530.451172	3302.910889
1528.673828	3326.138916
1526.896484	3312.798096
1525.117188	3369.753174
1523.339844	3308.619385
1521.560547	3341.661621
1519.781250	3197.666016
1518.001953	3267.237793
1516.220703	3352.228027
1514.439453	3249.036377
1512.660156	3241.344482
1510.878906	3208.392090
1509.095703	3216.145996
1507.314453	3127.095215
1505.531250	3259.695068
1503.750000	3268.834473
1501.966797	3224.691895
1500.183594	3239.440430
1498.398438	3226.153564
1496.615234	3235.290039
1494.830078	3273.840820
1493.044922	3198.927734
1491.259766	3192.659668
1489.474609	3231.193848
1487.687500	3220.721436
1485.902344	3200.457275
1484.115234	3171.806396
1482.328125	3204.715332
1480.539063	3178.871338
1478.751953	3194.985352
1476.962891	3227.867432
1475.175781	3281.699951
1473.386719	3209.746826
1471.595703	3295.692383
1469.806641	3183.258789
1468.015625	3223.088867
1466.226563	3222.412354
1464.435547	3210.568359
1462.642578	3172.212158
1460.851563	3171.545410
1459.060547	3195.988525
1457.267578	3241.342041
1455.474609	3147.232666
1453.681641	3178.634766
1451.886719	3240.687988
1450.093750	3235.823975
1448.298828	3233.748291
1446.503906	3163.417725
1444.708984	3232.383057
1442.914063	3130.057129
1441.117188	3105.730225
1439.322266	3156.569580
1437.525391	3140.595703
1435.728516	3238.706055
1433.931641	3167.084229
1432.132813	3135.820068
1430.333984	3181.035889
1428.537109	3176.191650
1426.736328	3126.877686
1424.937500	3113.709229
1423.138672	3135.274414
1421.337891	3208.217041
1419.537109	3125.611328
1417.736328	3188.806396
1415.935547	3247.810303
1414.134766	3186.062500
1412.332031	3116.016357
1410.529297	3091.772705
1408.726563	3145.198242
1406.923828	3068.271729
1405.121094	3159.105469
1403.316406	3165.361328
1401.511719	3178.541748
1399.707031	3080.892822
1397.902344	3114.859863
1396.097656	3087.885010
1394.291016	3184.133545
1392.484375	3175.147949
1390.677734	3139.873535
1388.871094	3090.778564
1387.064453	3175.876709
1385.255859	3092.220947
1383.447266	3073.584473
1381.638672	3100.572266
1379.830078	3115.109863
1378.021484	3140.694824
1376.210938	3169.031250
1374.402344	3108.961670
1372.591797	3113.817383
1370.779297	3073.112305
1368.968750	3129.042480
1367.158203	3109.050293
1365.345703	3055.954346
1363.533203	3026.330078
1361.720703	3058.776367
1359.906250	3004.345703
1358.093750	3122.247559
1356.279297	3077.472900
1354.464844	3075.431641
1352.650391	3056.859863
1350.833984	3101.650879
1349.019531	3050.032959
1347.203125	3028.724121
1345.386719	3094.136963
1343.570313	3127.870850
1341.753906	3070.787109
1339.935547	3031.609131
1338.117188	3024.077393
1336.298828	3176.037842
1334.480469	3098.372314
1332.662109	3086.707031
1330.841797	3046.191895
1329.021484	3001.572998
1327.201172	2989.935059
1325.380859	2924.750000
1323.560547	3021.586182
1321.738281	2933.088867
1319.917969	2962.641357
1318.095703	2967.485840
1316.271484	2942.151855
1314.449219	3045.734131
1312.625000	2992.972656
1310.802734	2995.063477
1308.978516	2999.893799
1307.152344	2985.539795
1305.328125	2932.835938
1303.501953	2934.936523
1301.675781	2921.974121
1299.849609	2881.637939
1298.023438	2927.543945
1296.197266	2957.009521
1294.369141	2931.739746
1292.541016	2958.455322
1290.712891	2926.358154
1288.884766	2912.047852
1287.056641	2985.222412
1285.226563	2890.277588
1283.396484	2836.361816
1281.566406	2920.431641
1279.736328	2882.920166
1277.904297	2887.751221
1276.074219	2928.071533
1274.242188	2917.877197
1272.410156	2879.033203
1270.576172	2871.582031
1268.744141	2917.324707
1266.910156	2889.413818
1265.076172	2920.135986
1263.242188	2923.584473
1261.408203	2880.700439
1259.572266	2817.398926
1257.736328	2864.453369
1255.900391	2877.442383
1254.064453	2860.472900
1252.228516	2880.262207
1250.390625	2880.990234
1248.554688	2857.227051
1246.716797	2845.716553
1244.876953	2839.650879
1243.039063	2856.702148
1241.199219	2913.167725
1239.361328	2843.213135
1237.521484	2867.045166
1235.679688	2837.885498
1233.839844	2793.798096
1231.998047	2816.266602
1230.158203	2792.566650
1228.314453	2839.456299
1226.472656	2800.834229
1224.630859	2793.432617
1222.787109	2745.342529
1220.943359	2832.882568
1219.099609	2813.275879
1217.255859	2807.232422
1215.410156	2829.650635
1213.566406	2747.731445
1211.720703	2766.088379
1209.873047	2818.294434
1208.027344	2777.051025
1206.181641	2792.680908
1204.333984	2792.062988
1202.486328	2772.501465
1200.638672	2813.824219
1198.789063	2810.496094
1196.941406	2789.590332
1195.091797	2702.450439
1193.242188	2764.025146
1191.392578	2785.032959
1189.541016	2780.362305
1187.689453	2756.783447
1185.839844	2745.368408
1183.988281	2837.916260
1182.134766	2726.602295
1180.283203	2744.889648
1178.429688	2772.613281
1176.576172	2785.486084
1174.722656	2725.528564
1172.869141	2816.607178
1171.013672	2798.456787
1169.158203	2704.842529
1167.302734	2736.578613
1165.447266	2686.126465
1163.591797	2727.279541
1161.734375	2713.207275
1159.876953	2744.911865
1158.019531	2769.872314
1156.162109	2730.232666
1154.304688	2749.803711
1152.445313	2685.975342
1150.585938	2709.581055
1148.726563	2704.943359
1146.867188	2729.877686
1145.005859	2697.017090
1143.144531	2705.819580
1141.283203	2713.274658
1139.421875	2707.296875
1137.560547	2674.469482
1135.697266	2766.490967
1133.835938	2710.850342
1131.972656	2733.053223
1130.107422	2720.369385
1128.244141	2705.008789
1126.378906	2658.816162
1124.513672	2597.898438
1122.648438	2788.966064
1120.783203	2927.691650
1118.916016	2945.790527
1117.050781	2753.609863
1115.183594	2695.415771
1113.316406	2688.118164
1111.447266	2667.439453
1109.580078	2768.537109
1107.710938	2738.484619
1105.841797	2721.820068
1103.972656	2711.848877
1102.101563	2673.806885
1100.232422	2750.729492
1098.361328	2688.641846
1096.490234	2673.342041
1094.617188	2666.062988
1092.746094	2652.109619
1090.873047	2663.529541
1089.000000	2670.939453
1087.126953	2710.373779
1085.253906	2724.440430
1083.378906	2725.161377
1081.503906	2729.882568
1079.628906	2687.935547
1077.753906	2639.342529
1075.878906	2642.746094
1074.001953	2632.823975
1072.125000	2621.573975
1070.248047	2644.955566
1068.371094	2740.227539
1066.492188	2659.737549
1064.613281	2652.483398
1062.734375	2671.843994
1060.855469	2699.177490
1058.976563	2697.238281
1057.095703	2675.354248
1055.214844	2638.856445
1053.333984	2624.969482
1051.453125	2607.102295
1049.570313	2686.223145
1047.689453	2619.206055
1045.806641	2654.467285
1043.923828	2622.004883
1042.039063	2632.030273
1040.156250	2610.202881
1038.271484	2610.939209
1036.386719	2664.730469
1034.501953	2612.409668
1032.615234	2614.469727
1030.728516	2707.987793
1028.843750	2570.879395
1026.955078	2648.465820
1025.068359	2590.907959
1023.181641	2720.101563
1021.292969	2617.537354
1019.404297	2632.828125
1017.515625	2653.405273
1015.625000	2845.975098
1013.736328	2702.467529
1011.845703	2551.089844
1009.955078	2496.300781
1008.062500	2552.575439
1006.171875	2612.788818
1004.279297	2591.054688
1002.386719	2602.354736
1000.494141	2587.235840
998.599609	2590.608887
996.707031	2559.657715
994.812500	2586.791016
992.917969	2612.592529
991.023438	2618.593994
989.126953	2610.084717
987.230469	2667.508545
985.333984	2583.848877
983.437500	2622.800049
981.541016	2643.285645
979.642578	2704.600830
977.744141	2603.885742
975.845703	2655.963623
973.947266	2655.358154
972.046875	2654.752686
970.148438	2700.203125
968.248047	2608.811523
966.347656	2614.792725
964.445313	2558.966309
962.544922	2674.074463
960.642578	2566.998535
958.740234	2662.340576
956.835938	2661.732422
954.933594	2624.346436
953.029297	2628.999512
951.125000	2645.465820
949.220703	2598.920410
947.316406	2544.522461
945.410156	2596.419678
943.503906	2608.942383
941.597656	2586.051758
939.691406	2585.459717
937.783203	2595.354004
935.876953	2563.307861
933.968750	2574.512451
932.058594	2598.810303
930.150391	2602.143555
928.240234	2604.165527
926.332031	2545.973145
924.419922	2567.636719
922.509766	2546.113770
920.599609	2576.923584
918.687500	2551.484131
916.775391	2469.834473
914.863281	2488.875244
912.949219	2531.430664
911.037109	2468.133301
909.123047	2582.519043
907.208984	2581.925537
905.292969	2556.524170
903.378906	2451.505859
901.462891	2540.992676
899.546875	2557.370117
897.630859	2585.480469
895.712891	2515.763916
893.796875	2524.311768
891.878906	2471.587402
889.960938	2444.952637
888.041016	2510.841553
886.123047	2499.841553
884.203125	2568.291504
882.283203	2536.449463
880.361328	2565.805664
878.441406	2505.345947
876.519531	2528.189209
874.597656	2470.367188
872.675781	2540.028320
870.753906	2591.453125
868.830078	2484.256592
866.906250	2466.787109
864.982422	2510.395996
863.058594	2474.740967
861.132813	2437.803223
859.207031	2451.522949
857.281250	2501.584961
855.355469	2589.261963
853.429688	2505.618164
851.501953	2523.200195
849.574219	2557.634521
847.646484	2544.075684
845.718750	2555.154053
843.789063	2542.897461
841.859375	2520.280273
839.929688	2513.218750
838.000000	2513.931396
836.068359	2549.604980
834.138672	2532.184326
832.207031	2532.891357
830.275391	2572.416748
828.341797	2533.009766
826.408203	2571.222900
824.476563	2573.211914
822.541016	2555.808350
820.607422	2524.195313
818.671875	2509.395020
816.738281	2588.907715
814.802734	2470.772949
812.865234	2546.383301
810.929688	2548.373047
808.992188	2616.185547
807.054688	2574.284912
805.117188	2584.006348
803.179688	2587.273926
801.240234	2535.092773
799.300781	2610.562988
797.361328	2666.665039
795.421875	2618.366455
793.480469	2561.072266
791.539063	2626.161377
789.597656	2666.754150
787.656250	2641.672119
785.712891	2742.733643
783.771484	2832.166748
781.828125	2855.948486
779.882813	2882.290771
777.939453	2911.192383
775.994141	2938.794434
774.048828	2907.261230
772.103516	2824.343994
770.158203	2771.012451
768.210938	2645.781250
766.263672	2637.458008
764.316406	2671.502197
762.369141	2610.554199
760.419922	2612.509033
758.472656	2610.614258
756.523438	2662.587402
754.572266	2608.108643
752.623047	2622.880859
750.671875	2696.601807
748.720703	2697.250488
746.769531	2677.401855
744.818359	2561.505859
742.865234	2614.683594
740.912109	2552.622314
738.958984	2663.369629
737.005859	2612.841553
735.050781	2678.748535
733.095703	2605.218750
731.140625	2600.770020
729.185547	2589.931641
727.228516	2627.663574
725.273438	2643.656006
723.316406	2703.073486
721.357422	2786.728516
719.400391	2803.947998
717.441406	2840.307129
715.482422	2849.847656
713.523438	2868.314697
711.564453	2872.740967
709.603516	2752.181396
707.642578	2734.956543
705.681641	2684.596191
703.720703	2709.451172
701.757813	2633.637451
699.794922	2683.968506
697.832031	2735.549316
695.869141	2706.891602
693.904297	2768.625000
691.939453	2695.430420
689.974609	2690.975586
688.009766	2647.089844
686.044922	2706.234375
684.078125	2686.522217
682.111328	2674.445557
680.144531	2668.728760
678.175781	2628.709961
676.208984	2636.978271
674.240234	2684.609863
672.269531	2503.687012
670.300781	2560.212158
668.330078	2550.721436
666.359375	2505.710693
664.388672	2550.778320
662.417969	2517.201416
660.445313	2502.656982
658.474609	2483.049316
656.500000	2517.940674
654.527344	2505.939453
652.552734	2493.943604
650.580078	2473.089111
648.605469	2502.884033
646.628906	2426.345947
644.654297	2443.483398
642.677734	2456.816895
640.701172	2506.822754
638.724609	2506.224854
636.746094	2496.777588
634.767578	2532.834473
632.789063	2493.058350
630.810547	2520.255127
628.832031	2483.026611
626.851563	2569.558105
624.871094	2484.364258
622.890625	2503.963379
620.908203	2464.249268
618.927734	2515.379883
616.945313	2489.554199
614.962891	2495.262451
612.978516	2541.305664
610.996094	2475.162598
609.011719	2526.227783
607.027344	2510.506104
605.041016	2496.050781
603.056641	2508.042236
601.070313	2595.552979
599.083984	2464.050537
597.095703	2522.591553
595.109375	2553.431641
593.121094	2536.469727
591.132813	2501.914063
589.142578	2469.888672
587.154297	2533.382568
585.164063	2405.882813
583.173828	2444.240479
581.181641	2508.949463
579.191406	2489.513428
577.199219	2476.361816
575.207031	2510.899414
573.214844	2499.002930
571.220703	2499.654053
569.226563	2541.683350
567.232422	2490.925049
565.238281	2504.109375
563.242188	2539.841309
561.248047	2545.490479
559.251953	2512.312500
557.253906	2477.897705
555.257813	2552.405518
553.259766	2507.985107
551.261719	2497.367920
549.263672	2530.536377
547.263672	2543.679199
545.263672	2511.805176
543.263672	2504.945801
541.263672	2500.588623
539.263672	2531.215576
537.261719	2586.808350
535.259766	2522.492920
533.255859	2553.091064
531.253906	2534.995850
529.250000	2538.122559
527.246094	2573.683350
525.242188	2525.661377
523.236328	2493.872803
521.232422	2526.924072
519.226563	2554.973389
517.218750	2541.889893
515.212891	2588.606934
513.205078	2559.330322
511.197266	2620.960938
509.189453	2548.121582
507.179688	2516.386230
505.169922	2499.596191
503.160156	2608.447510
501.150391	2646.360352
499.140625	2705.390137
497.128906	2686.082764
495.117188	2660.571045
493.105469	2676.069580
491.091797	2670.445068
489.078125	2643.712646
487.064453	2634.373535
485.050781	2682.131592
483.035156	2655.414795
481.021484	2633.672852
479.003906	2628.064453
476.988281	2634.857422
474.972656	2628.010742
472.955078	2624.885010
470.937500	2688.667236
468.917969	2704.107910
466.900391	2652.666748
464.880859	2660.678955
462.861328	2660.022461
460.839844	2701.440430
458.820313	2713.145020
456.798828	2690.210693
454.777344	2674.706787
452.753906	2655.501221
450.732422	2651.136230
448.708984	2703.613037
446.685547	2719.002930
444.660156	2662.752197
442.636719	2594.181641
440.611328	2637.977783
438.585938	2634.854980
436.558594	2641.603760
434.533203	2679.186523
432.505859	2695.785645
430.476563	2774.020996
428.449219	2916.311523
426.419922	2998.148926
424.390625	3019.578125
422.361328	3081.641113
420.332031	2994.677734
418.300781	3041.942383
416.269531	3148.258789
414.236328	3149.933838
412.205078	3331.207520
410.171875	3552.974365
408.138672	3975.041504
406.105469	5004.128418
404.070313	8281.597656
402.035156	11224.475586
400.000000	11771.938477
397.964844	10517.674805
395.927734	9054.104492
393.890625	7833.057617
391.853516	7537.825195
389.816406	7561.694336
387.777344	7340.261230
385.738281	6673.851563
383.699219	5803.062500
381.660156	4638.585938
379.619141	3994.183350
377.578125	3628.156738
375.537109	3514.580078
373.494141	3592.048340
371.451172	4002.397705
369.408203	5770.808594
367.365234	9434.529297
365.320313	13370.359375
363.277344	15105.714844
361.232422	14050.604492
359.185547	11062.631836
357.140625	8165.361328
355.093750	6454.412598
353.044922	5538.104004
350.998047	4865.214844
348.949219	4534.425781
346.900391	4225.768555
344.851563	4149.058105
342.802734	4172.396484
340.751953	4067.692383
338.701172	4049.591064
336.650391	4308.145508
334.597656	4673.787109
332.544922	5098.927734
330.492188	5358.232422
328.439453	5192.507324
326.384766	4796.822266
324.330078	4347.796875
322.275391	3894.134277
320.220703	3497.864990
318.164063	3282.969238
316.107422	3166.646240
314.050781	3068.611816
311.992188	3059.320557
309.933594	3111.981445
307.875000	3096.610596
305.816406	3080.032959
303.755859	2967.578125
301.697266	2943.760254
299.634766	2765.889160
297.574219	2796.710205
295.511719	2825.089600
293.449219	2804.967041
291.386719	2812.726807
289.324219	2898.020996
287.259766	3042.621094
285.195313	3135.076416
283.130859	3251.695068
281.064453	3215.755859
278.998047	3179.834229
276.931641	3149.978760
274.865234	3098.369873
272.796875	3131.419922
270.728516	3081.049805
268.660156	3174.506592
266.589844	3077.033936
264.519531	3170.441895
262.449219	3301.231934
260.378906	3312.444824
258.306641	3404.509277
256.234375	3640.102539
254.162109	3830.941895
252.089844	4151.918457
250.015625	4580.023438
247.941406	5170.615723
245.867188	6181.428223
243.791016	7441.071289
241.714844	10470.414063
239.638672	16067.528320
237.562500	23525.027344
235.484375	28351.632813
233.406250	28139.675781
231.328125	23038.648438
229.250000	16553.888672
227.169922	10980.131836
225.089844	7423.520508
223.007813	5652.981934
220.927734	4666.535645
218.845703	4124.922852
216.763672	3770.877930
214.679688	3545.442139
212.595703	3382.519287
210.511719	3249.671387
208.427734	3090.508789
206.341797	3028.544678
204.257813	2942.639893
202.169922	2970.619629
200.083984	2799.716553
197.996094	2821.729492
195.908203	2757.520264
193.820313	2720.876221
191.730469	2720.152832
189.640625	2718.232666
187.550781	2764.156250
185.460938	2695.261230
183.369141	2699.324219
181.277344	2608.969238
179.185547	2705.052490
177.091797	2662.522461
174.998047	2709.577393
172.904297	2634.833740
170.810547	2587.580322
168.714844	2707.401611
166.619141	2686.396484
164.523438	2726.223145
162.425781	2775.565674
160.328125	2871.366455
158.230469	2895.618164
156.132813	3077.106689
154.033203	3836.117676
151.933594	5115.032715
149.832031	6183.758789
147.732422	6642.623047
145.630859	6542.084961
143.529297	5704.193359
141.425781	4798.978027
139.322266	4112.975586
137.218750	3536.676025
135.115234	2984.449707
133.009766	2750.840088
130.904297	2675.285156
128.798828	2592.647705
126.693359	2648.908447
124.585938	2776.325928
122.478516	3255.957031
120.369141	4137.318359
118.259766	4657.807617
116.150391	4686.165527
114.041016	4116.159180
111.929688	3567.784180
109.820313	2966.419189
107.707031	2738.302979
105.595703	2622.748535
103.482422	2637.411377
101.369141	2850.792725
99.255859	3041.587402
97.140625	3082.130371
95.025391	3008.003174
92.910156	3037.896973
90.792969	3040.604004
88.675781	2928.756348
86.558594	2872.458984
84.441406	2713.505859
82.322266	2599.478760
80.203125	2505.567871
78.082031	2382.225098
75.962891	2312.004639
73.841797	2301.934570
71.718750	2159.895264
69.597656	2180.499756
67.474609	2179.893799
65.351563	2146.321533
63.226563	2170.441650
61.103516	2222.788574
58.976563	2155.115723
56.851563	2130.993408
54.724609	2155.088379
52.597656	2179.169434
50.470703	2172.684570
48.341797	2123.912354
46.214844	2104.526855
44.083984	2139.158936
41.955078	2147.948486
39.824219	2160.252930
37.693359	2186.626465
35.560547	2167.247314
33.429688	2183.051025
