#Wave		#Intensity
1945.525391	3505.014160
1943.826172	3546.197754
1942.126953	3664.737549
1940.425781	3615.616699
1938.726563	3642.956787
1937.025391	3586.504150
1935.324219	3682.911133
1933.623047	3622.060059
1931.919922	3659.661133
1930.218750	3632.616943
1928.515625	3620.267334
1926.814453	3669.594727
1925.111328	3655.772705
1923.408203	3639.018555
1921.705078	3708.863037
1920.001953	3592.316895
1918.296875	3679.750244
1916.593750	3657.131592
1914.888672	3655.053223
1913.183594	3632.444092
1911.478516	3656.760742
1909.773438	3711.853760
1908.068359	3661.394531
1906.361328	3622.675293
1904.656250	3589.829102
1902.949219	3532.088135
1901.242188	3585.686035
1899.535156	3530.892334
1897.828125	3543.471680
1896.121094	3715.621338
1894.412109	3564.223389
1892.703125	3579.714600
1890.996094	3623.001465
1889.287109	3613.604736
1887.578125	3589.582764
1885.869141	3667.942627
1884.158203	3515.239990
1882.449219	3570.192139
1880.738281	3597.351318
1879.027344	3618.654297
1877.316406	3594.650635
1875.605469	3515.136475
1873.894531	3548.125732
1872.181641	3554.813965
1870.470703	3606.766113
1868.757813	3553.581055
1867.044922	3582.157959
1865.332031	3606.345459
1863.619141	3500.653809
1861.906250	3454.815186
1860.191406	3535.899170
1858.478516	3539.656250
1856.763672	3594.447754
1855.048828	3513.630859
1853.333984	3492.606445
1851.617188	3633.362793
1849.902344	3619.608887
1848.185547	3508.245605
1846.470703	3501.800049
1844.753906	3463.315186
1843.037109	3577.737793
1841.320313	3511.589355
1839.601563	3563.369385
1837.884766	3431.753906
1836.166016	3487.893066
1834.447266	3458.175537
1832.728516	3477.923828
1831.009766	3516.570313
1829.291016	3508.672119
1827.570313	3473.153320
1825.851563	3473.985107
1824.130859	3506.788330
1822.410156	3488.722900
1820.689453	3559.281982
1818.968750	3567.356934
1817.246094	3579.784912
1815.525391	3481.856934
1813.802734	3428.966553
1812.080078	3548.818359
1810.357422	3465.458252
1808.634766	3463.379883
1806.912109	3519.328369
1805.187500	3491.132080
1803.464844	3481.797119
1801.740234	3472.464600
1800.015625	3454.437012
1798.291016	3459.604980
1796.564453	3472.015625
1794.839844	3582.940674
1793.113281	3411.355713
1791.386719	3384.662109
1789.660156	3452.099121
1787.933594	3381.973389
1786.207031	3417.539795
1784.480469	3463.222900
1782.751953	3414.835938
1781.023438	3408.419922
1779.294922	3494.577393
1777.566406	3462.116699
1775.837891	3390.627930
1774.107422	3440.597900
1772.378906	3480.430908
1770.648438	3459.554688
1768.917969	3493.588623
1767.187500	3399.043457
1765.457031	3339.195557
1763.724609	3276.481445
1761.994141	3359.608643
1760.261719	3436.930176
1758.529297	3465.152832
1756.796875	3396.687012
1755.064453	3388.838379
1753.330078	3378.107178
1751.597656	3478.423584
1749.863281	3430.189697
1748.128906	3356.024414
1746.394531	3361.158936
1744.660156	3360.526611
1742.923828	3313.789063
1741.189453	3330.450684
1739.453125	3394.632813
1737.716797	3370.952393
1735.980469	3298.330811
1734.244141	3330.813477
1732.507813	3374.796143
1730.769531	3362.645508
1729.031250	3418.113037
1727.292969	3335.479492
1725.554688	3280.199463
1723.816406	3390.284424
1722.076172	3429.889160
1720.337891	3368.871826
1718.597656	3385.472656
1716.857422	3295.751953
1715.117188	3318.104736
1713.376953	3438.105469
1711.634766	3349.859863
1709.894531	3343.475586
1708.152344	3360.058350
1706.410156	3380.938721
1704.667969	3304.247314
1702.923828	3346.646484
1701.181641	3383.291748
1699.437500	3401.281250
1697.695313	3313.172852
1695.951172	3381.335693
1694.205078	3326.225098
1692.460938	3315.552490
1690.716797	3307.748535
1688.970703	3292.785400
1687.224609	3346.563232
1685.478516	3290.077637
1683.732422	3282.281982
1681.984375	3290.231445
1680.238281	3378.306396
1678.490234	3273.215332
1676.742188	3241.111084
1674.994141	3320.562012
1673.246094	3337.071533
1671.496094	3316.407471
1669.748047	3404.370605
1667.998047	3282.246338
1666.248047	3371.609131
1664.498047	3369.520752
1662.748047	3267.466064
1660.996094	3305.376221
1659.244141	3233.351318
1657.494141	3239.852539
1655.742188	3333.395508
1653.988281	3278.525879
1652.236328	3267.895752
1650.484375	3307.183350
1648.730469	3272.311279
1646.976563	3250.282227
1645.222656	3252.490967
1643.468750	3344.473389
1641.712891	3316.742432
1639.958984	3344.574707
1638.203125	3237.100830
1636.447266	3250.698242
1634.691406	3268.560059
1632.933594	3303.494141
1631.177734	3307.107178
1629.419922	3316.408936
1627.662109	3331.396484
1625.904297	3236.869873
1624.146484	3294.522705
1622.388672	3347.887207
1620.628906	3347.219482
1618.869141	3379.235107
1617.111328	3281.948730
1615.349609	3349.475586
1613.589844	3375.789063
1611.830078	3409.191162
1610.068359	3434.061523
1608.306641	3355.309814
1606.544922	3377.341553
1604.783203	3426.320557
1603.021484	3394.425781
1601.257813	3354.034180
1599.494141	3312.240234
1597.730469	3365.443359
1595.966797	3339.253418
1594.203125	3357.002441
1592.439453	3488.084961
1590.673828	3355.648193
1588.908203	3422.947998
1587.142578	3443.495117
1585.376953	3396.083252
1583.611328	3328.875488
1581.843750	3377.728271
1580.076172	3419.487061
1578.308594	3554.583984
1576.541016	4201.562500
1574.773438	4340.686523
1573.003906	4382.213379
1571.236328	4936.761719
1569.466797	5698.800781
1567.697266	4814.669434
1565.927734	4716.229004
1564.156250	4924.270996
1562.386719	3788.105957
1560.615234	3414.669922
1558.843750	3344.818604
1557.072266	3372.356201
1555.298828	3406.935547
1553.527344	3421.753906
1551.753906	3357.596680
1549.980469	3430.222656
1548.207031	3375.955811
1546.433594	3358.352539
1544.660156	3391.479980
1542.884766	3330.209229
1541.109375	3346.426758
1539.333984	3271.107910
1537.558594	3245.094238
1535.783203	3268.355469
1534.005859	3262.053711
1532.228516	3268.416992
1530.451172	3266.336914
1528.673828	3333.170898
1526.896484	3264.990234
1525.117188	3355.694824
1523.339844	3340.946777
1521.560547	3281.236328
1519.781250	3197.666016
1518.001953	3213.860596
1516.220703	3252.518066
1514.439453	3218.146729
1512.660156	3248.363281
1510.878906	3225.234131
1509.095703	3210.533203
1507.314453	3188.823486
1505.531250	3263.903076
1503.750000	3323.525391
1501.966797	3141.971436
1500.183594	3167.951416
1498.398438	3224.751953
1496.615234	3208.667969
1494.830078	3198.193604
1493.044922	3205.930664
1491.259766	3189.859131
1489.474609	3170.993896
1487.687500	3230.519531
1485.902344	3106.696533
1484.115234	3157.815186
1482.328125	3173.940918
1480.539063	3184.465576
1478.751953	3175.409912
1476.962891	3117.429199
1475.175781	3087.425537
1473.386719	3185.991699
1471.595703	3197.897461
1469.806641	3144.149170
1468.015625	3213.313477
1466.226563	3165.168457
1464.435547	3193.817627
1462.642578	3216.871582
1460.851563	3216.195313
1459.060547	3205.753662
1457.267578	3138.132324
1455.474609	3110.977295
1453.681641	3093.592285
1451.886719	3097.122070
1450.093750	3203.772461
1448.298828	3184.984131
1446.503906	3143.916260
1444.708984	3159.964355
1442.914063	3173.220703
1441.117188	3114.082764
1439.322266	3180.229980
1437.525391	3161.468018
1435.728516	3068.979980
1433.931641	3201.856934
1432.132813	3145.554443
1430.333984	3112.910645
1428.537109	3090.010498
1426.736328	3139.385010
1424.937500	3122.045898
1423.138672	3157.500488
1421.337891	3087.388184
1419.537109	3099.229004
1417.736328	3098.570313
1415.935547	3149.265625
1414.134766	3088.926514
1412.332031	3128.502441
1410.529297	3088.998535
1408.726563	3123.009766
1406.923828	3054.406982
1405.121094	3102.272217
1403.316406	3087.751709
1401.511719	3053.838623
1399.707031	3121.066162
1397.902344	3148.099609
1396.097656	3083.730957
1394.291016	3083.071777
1392.484375	3089.333252
1390.677734	3072.066650
1388.871094	3132.284180
1387.064453	3032.021729
1385.255859	3060.413818
1383.447266	3083.262695
1381.638672	3100.572266
1379.830078	3072.266846
1378.021484	3125.495605
1376.210938	3146.927979
1374.402344	3122.772949
1372.591797	3010.253662
1370.779297	3125.573486
1368.968750	3146.985840
1367.158203	3059.371826
1365.345703	3053.195068
1363.533203	3026.330078
1361.720703	3022.920654
1359.906250	3076.041748
1358.093750	3053.323730
1356.279297	3067.825684
1354.464844	3076.809570
1352.650391	3016.909912
1350.833984	3082.368896
1349.019531	3054.163818
1347.203125	2970.902832
1345.386719	3052.844971
1343.570313	3050.809326
1341.753906	3048.774170
1339.935547	3006.850098
1338.117188	2956.692383
1336.298828	3187.037109
1334.480469	3025.517822
1332.662109	3056.471924
1330.841797	3051.687988
1329.021484	2986.462158
1327.201172	3020.150146
1325.380859	3012.629883
1323.560547	3051.788330
1321.738281	2953.676758
1319.917969	2954.407959
1318.095703	2935.931396
1316.271484	2890.029785
1314.449219	2923.685303
1312.625000	2884.660889
1310.802734	3004.658691
1308.978516	2947.817139
1307.152344	2917.032471
1305.328125	2854.754639
1303.501953	2860.980957
1301.675781	2954.835938
1299.849609	2891.220459
1298.023438	2913.857422
1296.197266	2914.590576
1294.369141	2840.080078
1292.541016	2917.422607
1290.712891	2886.701904
1288.884766	2907.946289
1287.056641	2998.891113
1285.226563	2887.544434
1283.396484	2833.629395
1281.566406	2882.184814
1279.736328	2826.927979
1277.904297	2860.443848
1276.074219	2906.230225
1274.242188	2881.028564
1272.410156	2832.641357
1270.576172	2818.379395
1268.744141	2845.039307
1266.910156	2867.596680
1265.076172	2794.714600
1263.242188	2867.702637
1261.408203	2847.996094
1259.572266	2844.646484
1257.736328	2844.022217
1255.900391	2833.865479
1254.064453	2825.074219
1252.228516	2828.537354
1250.390625	2857.855225
1248.554688	2817.770264
1246.716797	2844.356445
1244.876953	2830.130859
1243.039063	2856.702148
1241.199219	2869.667480
1239.361328	2845.931152
1237.521484	2771.929932
1235.679688	2875.923096
1233.839844	2797.872803
1231.998047	2747.014160
1230.158203	2772.202881
1228.314453	2829.955078
1226.472656	2749.268311
1224.630859	2767.655518
1222.787109	2798.241699
1220.943359	2785.419189
1219.099609	2851.238037
1217.255859	2891.273193
1215.410156	2847.268066
1213.566406	2803.282227
1211.720703	2768.797607
1209.873047	2858.923340
1208.027344	2817.670898
1206.181641	2765.606934
1204.333984	2762.288086
1202.486328	2792.797852
1200.638672	2765.123535
1198.789063	2749.633545
1196.941406	2759.842041
1195.091797	2757.878418
1193.242188	2742.399414
1191.392578	2768.817383
1189.541016	2764.150146
1187.689453	2754.082031
1185.839844	2779.128662
1183.988281	2797.413086
1182.134766	2756.297852
1180.283203	2754.336182
1178.429688	2753.724365
1176.576172	2767.950439
1174.722656	2771.380859
1172.869141	2718.180908
1171.013672	2658.264404
1169.158203	2668.454590
1167.302734	2710.977783
1165.447266	2683.432373
1163.591797	2747.481689
1161.734375	2710.514160
1159.876953	2709.910400
1158.019531	2721.419922
1156.162109	2699.283691
1154.304688	2695.991455
1152.445313	2694.045410
1150.585938	2632.932861
1148.726563	2679.399658
1146.867188	2698.963379
1145.005859	2727.924561
1143.144531	2709.850098
1141.283203	2734.765869
1139.421875	2693.867920
1137.560547	2744.284912
1135.697266	2680.583496
1133.835938	2696.088379
1131.972656	2687.435303
1130.107422	2649.274902
1128.244141	2719.760986
1126.378906	2657.475342
1124.513672	2595.217285
1122.648438	2806.388672
1120.783203	2931.711426
1118.916016	2904.262695
1117.050781	2848.700684
1115.183594	2728.890869
1113.316406	2689.456787
1111.447266	2633.979248
1109.580078	2689.589111
1107.710938	2698.350342
1105.841797	2656.282471
1103.972656	2667.721191
1102.101563	2747.336670
1100.232422	2654.494141
1098.361328	2695.323486
1096.490234	2682.694092
1094.617188	2650.034424
1092.746094	2665.463623
1090.873047	2692.901855
1089.000000	2649.582520
1087.126953	2670.338867
1085.253906	2667.069824
1083.378906	2727.829102
1081.503906	2707.211182
1079.628906	2679.935791
1077.753906	2708.658447
1075.878906	2632.084473
1074.001953	2626.162109
1072.125000	2673.525879
1070.248047	2618.319580
1068.371094	2721.586426
1066.492188	2675.712158
1064.613281	2724.351807
1062.734375	2682.488770
1060.855469	2659.268555
1058.976563	2646.698242
1057.095703	2618.177246
1055.214844	2652.150391
1053.333984	2593.071289
1051.453125	2577.868652
1049.570313	2599.870605
1047.689453	2620.534424
1045.806641	2607.990967
1043.923828	2588.814941
1042.039063	2605.484375
1040.156250	2628.781006
1038.271484	2612.265869
1036.386719	2655.445801
1034.501953	2630.974854
1032.615234	2627.727783
1030.728516	2623.156250
1028.843750	2551.001465
1026.955078	2600.769531
1025.068359	2561.766846
1023.181641	2615.482422
1021.292969	2637.397217
1019.404297	2574.585693
1017.515625	2562.091064
1015.625000	2763.943115
1013.736328	2677.334473
1011.845703	2639.697021
1009.955078	2641.742188
1008.062500	2571.081787
1006.171875	2599.572998
1004.279297	2577.841797
1002.386719	2610.280762
1000.494141	2572.708252
998.599609	2640.783691
996.707031	2624.342041
994.812500	2623.745361
992.917969	2629.745850
991.023438	2586.933350
989.126953	2652.289307
987.230469	2597.623291
985.333984	2587.803711
983.437500	2568.762451
981.541016	2602.437256
979.642578	2634.779053
977.744141	2580.177979
975.845703	2609.875977
973.947266	2590.850098
972.046875	2617.899414
970.148438	2676.517090
968.248047	2685.115723
966.347656	2623.999512
964.445313	2516.886719
962.544922	2599.137451
960.642578	2588.028809
958.740234	2657.084229
956.835938	2598.670654
954.933594	2605.957764
953.029297	2598.796143
951.125000	2540.435059
949.220703	2517.540039
947.316406	2555.020752
945.410156	2584.611816
943.503906	2566.968506
941.597656	2570.315186
939.691406	2514.661133
937.783203	2592.732422
935.876953	2517.440918
933.968750	2505.072510
932.058594	2594.880615
930.150391	2539.283447
928.240234	2581.907715
926.332031	2545.973145
924.419922	2562.402100
922.509766	2576.206543
920.599609	2648.868164
918.687500	2554.099854
916.775391	2495.984131
914.863281	2484.953613
912.949219	2506.600098
911.037109	2468.133301
909.123047	2530.267822
907.208984	2598.903320
905.292969	2577.415039
903.378906	2527.217773
901.462891	2552.738281
899.546875	2529.969727
897.630859	2499.384766
895.712891	2519.676270
893.796875	2511.273193
891.878906	2501.569824
889.960938	2525.756104
888.041016	2565.566650
886.123047	2472.485352
884.203125	2538.336670
882.283203	2579.418213
880.361328	2537.166504
878.441406	2515.757813
876.519531	2512.575195
874.597656	2457.358398
872.675781	2520.519775
870.753906	2527.739502
868.830078	2512.856201
866.906250	2451.190918
864.982422	2566.269287
863.058594	2529.302246
861.132813	2470.272705
859.207031	2463.209229
857.281250	2471.726807
855.355469	2534.751221
853.429688	2499.130371
851.501953	2472.606445
849.574219	2578.386230
847.646484	2555.745850
845.718750	2595.341553
843.789063	2514.383789
841.859375	2506.026611
839.929688	2528.764404
838.000000	2537.244629
836.068359	2509.464111
834.138672	2480.401611
832.207031	2486.297607
830.275391	2556.889160
828.341797	2501.961426
826.408203	2432.832031
824.476563	2521.489014
822.541016	2567.443359
820.607422	2535.827637
818.671875	2531.361816
816.738281	2550.151611
814.802734	2531.476807
812.865234	2565.752441
810.929688	2525.135498
808.992188	2589.081543
807.054688	2520.089600
805.117188	2549.174561
803.179688	2605.330811
801.240234	2549.276855
799.300781	2562.864014
797.361328	2609.954834
795.421875	2633.829346
793.480469	2608.738281
791.539063	2686.695801
789.597656	2679.630859
787.656250	2667.419434
785.712891	2760.752441
783.771484	2869.482910
781.828125	2904.833984
779.882813	2902.869385
777.939453	2933.052002
775.994141	2932.366455
774.048828	2876.415039
772.103516	2812.779297
770.158203	2800.559570
768.210938	2688.165283
766.263672	2654.150635
764.316406	2634.273193
762.369141	2636.223389
760.419922	2621.491211
758.472656	2610.614258
756.523438	2598.459717
754.572266	2650.423096
752.623047	2644.674072
750.671875	2735.051270
748.720703	2616.525146
746.769531	2650.499756
744.818359	2570.471191
742.865234	2601.878906
740.912109	2588.466553
738.958984	2619.854736
737.005859	2640.991699
735.050781	2530.355469
733.095703	2600.102783
731.140625	2598.212891
729.185547	2591.209961
727.228516	2658.336670
725.273438	2669.210938
723.316406	2690.299072
721.357422	2814.825684
719.400391	2825.654297
717.441406	2819.882324
715.482422	2856.228760
713.523438	2861.935059
711.564453	2867.638428
709.603516	2756.007568
707.642578	2791.058350
705.681641	2778.926758
703.720703	2704.353516
701.757813	2640.008057
699.794922	2713.266846
697.832031	2660.410645
695.869141	2750.181396
693.904297	2699.886719
691.939453	2673.795654
689.974609	2604.457275
688.009766	2677.618652
686.044922	2674.441162
684.078125	2676.350830
682.111328	2682.072510
680.144531	2652.208008
678.175781	2612.193115
676.208984	2598.871582
674.240234	2576.666504
672.269531	2577.324951
670.300781	2599.561035
668.330078	2615.441162
666.359375	2519.666504
664.388672	2500.041748
662.417969	2496.911621
660.445313	2497.585938
658.474609	2526.144775
656.500000	2478.657227
654.527344	2514.807861
652.552734	2534.474854
650.580078	2464.224854
648.605469	2477.564209
646.628906	2394.703369
644.654297	2513.080322
642.677734	2479.588623
640.701172	2491.645264
638.724609	2483.464111
636.746094	2556.194580
634.767578	2523.987061
632.789063	2490.531250
630.810547	2436.878418
628.832031	2447.663086
626.851563	2466.018311
624.871094	2515.923828
622.890625	2535.515381
620.908203	2474.343506
618.927734	2451.044678
616.945313	2436.584961
614.962891	2419.610107
612.978516	2535.002686
610.996094	2504.148926
609.011719	2547.647217
607.027344	2499.168945
605.041016	2485.975830
603.056641	2539.518799
601.070313	2478.488770
599.083984	2457.758301
597.095703	2488.621582
595.109375	2532.048096
593.121094	2513.833740
591.132813	2503.171387
589.142578	2477.430176
587.154297	2442.904785
585.164063	2414.677246
583.173828	2434.192139
581.181641	2482.579102
579.191406	2509.600098
577.199219	2482.637451
575.207031	2460.706543
573.214844	2478.930664
571.220703	2493.382813
569.226563	2489.019043
567.232422	2533.547852
565.238281	2521.655762
563.242188	2493.479980
561.248047	2485.360840
559.251953	2503.545654
557.253906	2502.939697
555.257813	2537.383789
553.259766	2510.488037
551.261719	2538.656982
549.263672	2580.571777
547.263672	2529.922852
545.263672	2574.319092
543.263672	2518.695557
541.263672	2450.601807
539.263672	2558.701660
537.261719	2551.834717
535.259766	2542.473145
533.255859	2555.587891
531.253906	2516.273682
529.250000	2539.370361
527.246094	2541.247314
525.242188	2479.513672
523.236328	2535.021729
521.232422	2504.484619
519.226563	2541.263672
517.218750	2561.826172
515.212891	2548.743896
513.205078	2564.312012
511.197266	2505.165527
509.189453	2638.992676
507.179688	2549.987793
505.169922	2600.376465
503.160156	2596.008545
501.150391	2620.245117
499.140625	2598.467529
497.128906	2580.429443
495.117188	2615.834717
493.105469	2661.161133
491.091797	2646.845703
489.078125	2689.657959
487.064453	2624.441895
485.050781	2576.633545
483.035156	2587.168213
481.021484	2634.913330
479.003906	2635.505859
476.988281	2674.535156
474.972656	2668.918457
472.955078	2694.287109
470.937500	2676.277100
468.917969	2673.140137
466.900391	2656.381836
464.880859	2689.155273
462.861328	2667.449219
460.839844	2668.028076
458.820313	2627.779297
456.798828	2643.209229
454.777344	2647.502197
452.753906	2661.682617
450.732422	2636.304688
448.708984	2649.244141
446.685547	2663.412354
444.660156	2661.517334
442.636719	2664.561768
440.611328	2635.508789
438.585938	2571.914551
436.558594	2604.589111
434.533203	2700.156250
432.505859	2697.018799
430.476563	2801.144531
428.449219	2906.450684
426.419922	3008.007080
424.390625	3055.305420
422.361328	2983.107422
420.332031	3021.767822
418.300781	3059.177002
416.269531	3138.412842
414.236328	3142.551270
412.205078	3363.191162
410.171875	3609.546387
408.138672	4025.451904
406.105469	5154.092285
404.070313	8646.583008
402.035156	12169.267578
400.000000	12673.503906
397.964844	11194.292969
395.927734	9422.407227
393.890625	7884.606934
391.853516	7514.510742
389.816406	7605.857422
387.777344	7213.937988
385.738281	6676.303711
383.699219	5687.834961
381.660156	4647.164551
379.619141	4048.092529
377.578125	3543.638672
375.537109	3463.147217
373.494141	3547.974121
371.451172	3919.167480
369.408203	5679.033691
367.365234	8973.323242
365.320313	12619.408203
363.277344	14111.627930
361.232422	13221.797852
359.185547	10356.246094
357.140625	7635.095703
355.093750	6222.327637
353.044922	5237.690918
350.998047	4767.543945
348.949219	4442.882813
346.900391	4148.892090
344.851563	4142.958496
342.802734	4067.507324
340.751953	3985.997070
338.701172	4053.248047
336.650391	4252.084961
334.597656	4750.546387
332.544922	5313.312012
330.492188	5562.819824
328.439453	5459.132813
326.384766	4987.916016
324.330078	4441.494141
322.275391	3959.827148
320.220703	3507.594727
318.164063	3332.821533
316.107422	3178.802490
314.050781	3100.209473
311.992188	3090.909912
309.933594	3087.687988
307.875000	3108.754150
305.816406	3048.467773
303.755859	2928.738770
301.697266	2889.156250
299.634766	2785.299072
297.574219	2789.433350
295.511719	2765.677734
293.449219	2802.542480
291.386719	2863.625000
289.324219	2927.098145
287.259766	3054.733643
285.195313	3122.967041
283.130859	3250.484619
281.064453	3237.541016
278.998047	3210.083740
276.931641	3169.333496
274.865234	3081.438965
272.796875	3070.967773
270.728516	3146.321045
268.660156	3141.879395
266.589844	3173.682129
264.519531	3242.909180
262.449219	3285.534912
260.378906	3369.181152
258.306641	3530.021240
256.234375	3658.200439
254.162109	3865.922119
252.089844	4173.624512
250.015625	4602.929688
247.941406	5223.647461
245.867188	6141.664551
243.791016	7659.111816
241.714844	10928.057617
239.638672	16550.335938
237.562500	24001.691406
235.484375	28808.917969
233.406250	28404.349609
231.328125	23060.296875
229.250000	16575.533203
227.169922	10844.292969
225.089844	7481.206543
223.007813	5719.063477
220.927734	4595.666992
218.845703	4126.124023
216.763672	3766.075928
214.679688	3545.442139
212.595703	3341.722656
210.511719	3303.652588
208.427734	3220.029541
206.341797	3032.141602
204.257813	2951.030273
202.169922	2934.670166
200.083984	2856.022461
197.996094	2825.322510
195.908203	2826.967041
193.820313	2747.211182
191.730469	2715.365967
189.640625	2725.411133
187.550781	2758.176025
185.460938	2738.308838
183.369141	2723.233398
181.277344	2619.725586
179.185547	2668.013184
177.091797	2646.994141
174.998047	2672.558105
172.904297	2627.670410
170.810547	2587.580322
168.714844	2648.934082
166.619141	2724.569092
164.523438	2689.253418
162.425781	2789.872803
160.328125	2804.618164
158.230469	2918.258789
156.132813	3137.862549
154.033203	3823.016846
151.933594	5097.172852
149.832031	6400.398926
147.732422	6866.344238
145.630859	6614.655762
143.529297	5743.442383
141.425781	4725.257324
139.322266	4014.311523
137.218750	3485.574951
135.115234	2933.362305
133.009766	2742.525879
130.904297	2601.664307
128.798828	2584.337891
126.693359	2648.908447
124.585938	2772.766602
122.478516	3264.260010
120.369141	3997.391602
118.259766	4481.168945
116.150391	4412.391113
114.041016	3944.356201
111.929688	3507.373535
109.820313	2964.050781
107.707031	2662.535156
105.595703	2581.324219
103.482422	2606.647461
101.369141	2853.158691
99.255859	2964.719971
97.140625	3075.036865
95.025391	3076.554932
92.910156	2988.269775
90.792969	2903.575928
88.675781	2906.318359
86.558594	2870.097900
84.441406	2668.654541
82.322266	2637.237793
80.203125	2477.256348
78.082031	2378.687256
75.962891	2273.097900
73.841797	2261.859863
71.718750	2236.487305
69.597656	2180.499756
67.474609	2242.311035
65.351563	2165.159180
63.226563	2173.972900
61.103516	2133.359375
58.976563	2123.353760
56.851563	2165.098877
54.724609	2137.452637
52.597656	2150.959961
50.470703	2190.310303
48.341797	2156.804932
46.214844	2131.538086
44.083984	2105.110840
41.955078	2154.990967
39.824219	2201.322266
37.693359	2206.568848
35.560547	2225.885010
33.429688	2164.292236
